##NAMES=Actinolite
##RRUFFID=R040064
##IDEAL CHEMISTRY=Ca_2_(Mg_4.5-2.5_Fe^2+^_0.5-2.5_)Si_8_O_22_(OH)_2_
##LOCALITY=Ehime Perfecture, Uma Gun, Japan
##OWNER=RRUFF
##SOURCE=University of Arizona Mineral Museum
##DESCRIPTION=Aggregate of green acicular crystals associated with chlorite
##STATUS=The identification of this mineral has been confirmed by X-ray diffraction and chemical analysis
##URL=rruff.info/R040064
##MEASURED CHEMISTRY=(Ca_0.95_Na_0.04_Mn_0.01_)_2_(Mg_0.88_Fe_0.12_)_5_(Si_0.98_Al_0.02_)_8_O_22_(OH)_2_
##PIN_ID=M00235
##ORIENTATION=Laser parallel to b* (0 1 0). Fiducial mark perpendicular to laser is parallel to -c [0 0 -1]
109.292, 3462.000
110.678, 3586.000
112.063, 3595.000
113.448, 3593.000
114.833, 3833.000
116.218, 3954.000
117.602, 4231.000
118.987, 4344.000
120.371, 4587.000
121.755, 4846.000
123.138, 5211.000
124.522, 5348.000
125.905, 5278.000
127.288, 5077.000
128.671, 4584.000
130.053, 4126.000
131.436, 3859.000
132.818, 3495.000
134.200, 3359.000
135.582, 3166.000
136.963, 3132.000
138.345, 3092.000
139.726, 2979.000
141.107, 2971.000
142.488, 2972.000
143.868, 2990.000
145.248, 2928.000
146.629, 2955.000
148.008, 2964.000
149.388, 2959.000
150.768, 3031.000
152.147, 3180.000
153.526, 3469.000
154.905, 3984.000
156.284, 5058.000
157.662, 6437.000
159.040, 8993.000
160.418, 13130.000
161.796, 16470.000
163.174, 17800.000
164.551, 14880.000
165.929, 11180.000
167.306, 8256.000
168.683, 6566.000
170.059, 5824.000
171.436, 5504.000
172.812, 5711.000
174.188, 6327.000
175.564, 7910.000
176.939, 9845.000
178.315, 13160.000
179.690, 17010.000
181.065, 19530.000
182.440, 20090.000
183.814, 16830.000
185.188, 13050.000
186.563, 9850.000
187.937, 7590.000
189.310, 6202.000
190.684, 5332.000
192.057, 4740.000
193.430, 4404.000
194.803, 4169.000
196.176, 3977.000
197.549, 3857.000
198.921, 3954.000
200.293, 3722.000
201.665, 3867.000
203.037, 3717.000
204.408, 3867.000
205.779, 3867.000
207.150, 3915.000
208.521, 4084.000
209.892, 4251.000
211.262, 4585.000
212.633, 4878.000
214.003, 5244.000
215.373, 5979.000
216.742, 6742.000
218.112, 8020.000
219.481, 9606.000
220.850, 12300.000
222.219, 15170.000
223.588, 18500.000
224.956, 21210.000
226.324, 21200.000
227.692, 19700.000
229.060, 16290.000
230.428, 13110.000
231.795, 10210.000
233.162, 8068.000
234.529, 6595.000
235.896, 5489.000
237.263, 4754.000
238.629, 4224.000
239.995, 3806.000
241.361, 3573.000
242.727, 3248.000
244.093, 3183.000
245.458, 3127.000
246.823, 3136.000
248.188, 3194.000
249.553, 3351.000
250.917, 3491.000
252.282, 3564.000
253.646, 3622.000
255.010, 3477.000
256.374, 3367.000
257.737, 3195.000
259.101, 3047.000
260.464, 2969.000
261.827, 2871.000
263.189, 2867.000
264.552, 2750.000
265.914, 2698.693
267.276, 2699.000
268.638, 2554.000
270.000, 2580.000
271.362, 2496.000
272.723, 2460.000
274.084, 2446.000
275.445, 2457.000
276.806, 2457.000
278.166, 2452.161
279.526, 2442.000
280.887, 2453.000
282.246, 2459.000
283.606, 2473.000
284.966, 2532.000
286.325, 2618.000
287.684, 2657.000
289.043, 2794.000
290.402, 2916.000
291.760, 3054.000
293.118, 3163.000
294.477, 3212.000
295.834, 3247.000
297.192, 3328.000
298.550, 3486.000
299.907, 3587.000
301.264, 3966.000
302.621, 4320.000
303.978, 4558.000
305.334, 4554.671
306.690, 4533.000
308.046, 4262.000
309.402, 3920.000
310.758, 3554.000
312.113, 3264.000
313.469, 3060.000
314.824, 2992.000
316.179, 2818.000
317.533, 2781.000
318.888, 2764.000
320.242, 2660.000
321.596, 2697.000
322.950, 2674.000
324.304, 2715.000
325.657, 2709.000
327.010, 2834.000
328.363, 2808.000
329.716, 2959.000
331.069, 3205.000
332.421, 3386.000
333.774, 3671.000
335.126, 3778.000
336.478, 3807.000
337.829, 3812.000
339.181, 3716.000
340.532, 3829.000
341.883, 3814.000
343.234, 3844.000
344.585, 3916.000
345.935, 3830.000
347.285, 3798.000
348.635, 3681.000
349.985, 3638.000
351.335, 3574.000
352.684, 3466.000
354.034, 3471.000
355.383, 3321.000
356.731, 3308.000
358.080, 3082.000
359.429, 2998.000
360.777, 2923.000
362.125, 2810.000
363.473, 2850.000
364.820, 2802.000
366.168, 2860.000
367.515, 2889.000
368.862, 2995.000
370.209, 3224.000
371.556, 3158.000
372.902, 3323.000
374.249, 3287.000
375.595, 3148.000
376.940, 3162.000
378.286, 3041.000
379.632, 3086.000
380.977, 2998.000
382.322, 3055.000
383.667, 3062.000
385.012, 3214.000
386.356, 3385.000
387.700, 3559.000
389.044, 3978.000
390.388, 4445.000
391.732, 5117.000
393.075, 6042.000
394.419, 6686.000
395.762, 7160.000
397.105, 6972.000
398.447, 6458.000
399.790, 5694.000
401.132, 4766.000
402.474, 4256.000
403.816, 3855.000
405.158, 3532.000
406.499, 3403.000
407.841, 3243.000
409.182, 3231.969
410.523, 3267.636
411.864, 3398.000
413.204, 3514.000
414.544, 3713.000
415.884, 3921.000
417.224, 3975.000
418.564, 4035.000
419.904, 3801.000
421.243, 3678.000
422.582, 3409.000
423.921, 3167.000
425.260, 3023.000
426.598, 2822.000
427.937, 2691.000
429.275, 2646.000
430.613, 2532.000
431.951, 2535.000
433.288, 2513.000
434.625, 2518.000
435.963, 2562.000
437.300, 2618.000
438.636, 2706.000
439.973, 2682.000
441.309, 2638.000
442.646, 2526.000
443.981, 2457.000
445.317, 2391.000
446.653, 2321.000
447.988, 2316.000
449.323, 2331.000
450.658, 2292.000
451.993, 2292.000
453.328, 2264.000
454.662, 2300.000
455.996, 2319.000
457.331, 2253.000
458.664, 2294.000
459.998, 2301.000
461.331, 2318.000
462.665, 2310.000
463.998, 2329.000
465.330, 2325.036
466.663, 2385.000
467.996, 2315.000
469.328, 2311.000
470.660, 2292.000
471.992, 2335.000
473.323, 2341.000
474.655, 2364.000
475.986, 2334.000
477.317, 2324.000
478.648, 2331.000
479.979, 2334.000
481.309, 2333.000
482.640, 2371.000
483.970, 2385.000
485.300, 2406.000
486.629, 2449.000
487.959, 2406.000
489.288, 2403.000
490.617, 2427.000
491.946, 2360.000
493.275, 2389.000
494.603, 2278.000
495.932, 2318.000
497.260, 2268.000
498.588, 2292.000
499.916, 2268.000
501.243, 2273.000
502.571, 2270.491
503.898, 2292.000
505.225, 2270.000
506.552, 2308.000
507.878, 2332.000
509.205, 2335.000
510.531, 2366.000
511.857, 2329.000
513.183, 2385.000
514.508, 2380.000
515.834, 2440.000
517.159, 2408.000
518.484, 2449.000
519.809, 2421.000
521.133, 2456.000
522.458, 2468.000
523.782, 2486.000
525.106, 2492.000
526.430, 2518.000
527.754, 2530.792
529.077, 2572.000
530.400, 2571.000
531.723, 2586.000
533.046, 2619.000
534.369, 2582.000
535.692, 2602.000
537.014, 2542.000
538.336, 2544.000
539.658, 2538.000
540.980, 2499.000
542.301, 2507.512
543.623, 2478.000
544.944, 2511.000
546.265, 2511.000
547.585, 2540.000
548.906, 2500.000
550.226, 2518.000
551.547, 2490.000
552.867, 2535.000
554.186, 2510.000
555.506, 2492.000
556.825, 2508.000
558.145, 2500.000
559.464, 2461.000
560.783, 2501.000
562.101, 2477.000
563.420, 2476.000
564.738, 2516.000
566.056, 2432.000
567.374, 2477.000
568.692, 2441.000
570.009, 2424.000
571.326, 2508.000
572.643, 2506.000
573.960, 2482.000
575.277, 2719.000
576.594, 2581.460
577.910, 2718.000
579.226, 2484.000
580.542, 2505.000
581.858, 2523.000
583.173, 2484.000
584.489, 2521.000
585.804, 2479.000
587.119, 2511.000
588.434, 2497.000
589.748, 2500.000
591.063, 2494.000
592.377, 2465.000
593.691, 2505.000
595.005, 2500.000
596.318, 2487.000
597.632, 2506.000
598.945, 2513.000
600.258, 2523.000
601.571, 2481.000
602.884, 2504.000
604.196, 2541.000
605.508, 2517.000
606.821, 2553.000
608.132, 2609.000
609.444, 2572.000
610.756, 2603.000
612.067, 2640.000
613.378, 2670.000
614.689, 2659.000
616.000, 2733.000
617.311, 2767.000
618.621, 2728.000
619.931, 2842.000
621.241, 2774.000
622.551, 2855.000
623.861, 2942.000
625.170, 2901.000
626.479, 2991.000
627.788, 2983.000
629.097, 3029.000
630.406, 3123.000
631.714, 3114.000
633.023, 3247.000
634.331, 3226.000
635.639, 3329.000
636.946, 3427.000
638.254, 3409.000
639.561, 3576.000
640.868, 3636.000
642.175, 3817.000
643.482, 3873.000
644.789, 4068.000
646.095, 4259.000
647.401, 4476.000
648.707, 4769.000
650.013, 5056.000
651.319, 5271.000
652.624, 5675.000
653.929, 6016.000
655.234, 6378.000
656.539, 6839.000
657.844, 7247.000
659.148, 7897.000
660.453, 8465.000
661.757, 9484.000
663.061, 10400.000
664.364, 12000.000
665.668, 14270.000
666.971, 16600.000
668.274, 20910.000
669.577, 26070.000
670.880, 32960.000
672.183, 41840.000
673.485, 49780.000
674.787, 55270.000
676.089, 55490.000
677.391, 50290.000
678.693, 42230.000
679.994, 33160.000
681.296, 26080.000
682.597, 20170.000
683.898, 16200.000
685.198, 13210.000
686.499, 10770.000
687.799, 9359.000
689.099, 8100.000
690.399, 7246.000
691.699, 6672.000
692.998, 5997.000
694.298, 5652.000
695.597, 5207.000
696.896, 4843.000
698.195, 4627.000
699.493, 4348.000
700.792, 4254.000
702.090, 4021.000
703.388, 3822.000
704.686, 3801.000
705.984, 3639.000
707.281, 3601.000
708.578, 3497.000
709.876, 3377.000
711.172, 3418.000
712.469, 3268.000
713.766, 3268.000
715.062, 3217.000
716.358, 3223.000
717.654, 3140.000
718.950, 3081.000
720.246, 3078.000
721.541, 3067.000
722.836, 3060.000
724.131, 3044.000
725.426, 2996.000
726.721, 2958.000
728.015, 3012.000
729.310, 2981.000
730.604, 3004.000
731.898, 2953.000
733.191, 2929.000
734.485, 2927.000
735.778, 2892.000
737.071, 2917.000
738.364, 2937.000
739.657, 2913.000
740.950, 2932.000
742.242, 2916.000
743.535, 2948.000
744.827, 2989.000
746.118, 3019.000
747.410, 3047.000
748.702, 3060.000
749.993, 3128.000
751.284, 3187.000
752.575, 3204.000
753.866, 3204.000
755.156, 3138.000
756.447, 3195.000
757.737, 3080.000
759.027, 2966.000
760.316, 2944.000
761.606, 2892.000
762.896, 2831.000
764.185, 2818.000
765.474, 2811.000
766.763, 2790.000
768.051, 2745.000
769.340, 2787.000
770.628, 2671.000
771.916, 2702.000
773.204, 2712.000
774.492, 2689.000
775.780, 2730.000
777.067, 2721.000
778.354, 2696.000
779.641, 2713.000
780.928, 2669.000
782.215, 2692.000
783.501, 2752.000
784.787, 2654.000
786.073, 2722.000
787.359, 2682.000
788.645, 2707.000
789.930, 2713.000
791.216, 2658.000
792.501, 2675.380
793.786, 2689.000
795.071, 2658.000
796.355, 2680.000
797.640, 2680.000
798.924, 2684.000
800.208, 2679.000
801.492, 2707.000
802.775, 2655.000
804.059, 2673.000
805.342, 2717.000
806.625, 2696.000
807.908, 2661.000
809.191, 2678.000
810.474, 2639.000
811.756, 2699.000
813.038, 2684.000
814.320, 2673.000
815.602, 2735.000
816.884, 2657.000
818.165, 2713.000
819.446, 2713.000
820.727, 2688.000
822.008, 2745.000
823.289, 2719.000
824.569, 2732.000
825.850, 2765.000
827.130, 2721.000
828.410, 2700.000
829.690, 2677.000
830.969, 2712.000
832.249, 2733.000
833.528, 2720.000
834.807, 2779.000
836.086, 2736.000
837.364, 2706.000
838.643, 2761.000
839.921, 2780.000
841.199, 2736.000
842.477, 2794.000
843.755, 2740.000
845.033, 2798.000
846.310, 2718.000
847.587, 2789.000
848.864, 2766.000
850.141, 2819.000
851.418, 2821.000
852.694, 2761.000
853.971, 2821.000
855.247, 2827.000
856.523, 2837.000
857.798, 2812.000
859.074, 2832.000
860.349, 2847.000
861.624, 2832.000
862.899, 2863.000
864.174, 2898.000
865.449, 2903.000
866.723, 2901.021
867.998, 2890.000
869.272, 2880.000
870.545, 2830.000
871.819, 2842.000
873.093, 2834.639
874.366, 2846.944
875.639, 2852.000
876.912, 2882.000
878.185, 2897.000
879.458, 2878.000
880.730, 3027.000
882.002, 2889.000
883.274, 2944.000
884.546, 3046.000
885.818, 2988.000
887.090, 3009.000
888.361, 2996.000
889.632, 3074.000
890.903, 3084.000
892.174, 3068.000
893.444, 3115.000
894.715, 3106.000
895.985, 3163.000
897.255, 3220.000
898.525, 3208.000
899.795, 3232.000
901.064, 3230.000
902.334, 3241.000
903.603, 3297.000
904.872, 3350.000
906.140, 3412.000
907.409, 3433.000
908.677, 3456.000
909.946, 3572.000
911.214, 3579.000
912.482, 3703.000
913.749, 3845.000
915.017, 3793.000
916.284, 3977.000
917.551, 4140.000
918.818, 4289.000
920.085, 4426.000
921.352, 4657.000
922.618, 4943.000
923.884, 5293.000
925.150, 5663.000
926.416, 6264.000
927.682, 6892.000
928.947, 7733.000
930.213, 8485.000
931.478, 9370.000
932.743, 9676.000
934.008, 9710.000
935.272, 9196.000
936.537, 8422.000
937.801, 7508.000
939.065, 6778.000
940.329, 6060.000
941.593, 5472.000
942.856, 5240.000
944.119, 4858.000
945.383, 4797.000
946.646, 4646.000
947.908, 4618.000
949.171, 4623.000
950.433, 4589.000
951.696, 4440.000
952.958, 4390.000
954.220, 4227.000
955.481, 4158.000
956.743, 4043.000
958.004, 3951.000
959.265, 3908.000
960.526, 3841.000
961.787, 3756.000
963.048, 3766.000
964.308, 3666.000
965.569, 3635.000
966.829, 3600.000
968.089, 3586.000
969.348, 3556.000
970.608, 3515.000
971.867, 3580.000
973.126, 3552.000
974.385, 3471.000
975.644, 3534.000
976.903, 3464.000
978.161, 3449.000
979.420, 3520.000
980.678, 3448.000
981.936, 3504.000
983.193, 3510.000
984.451, 3377.000
985.708, 3452.000
986.966, 3389.000
988.223, 3420.000
989.479, 3503.000
990.736, 3378.000
991.993, 3432.000
993.249, 3437.000
994.505, 3476.000
995.761, 3439.000
997.017, 3436.000
998.272, 3506.000
999.528, 3422.000
1000.783, 3482.000
1002.038, 3484.000
1003.293, 3520.000
1004.548, 3543.000
1005.802, 3556.000
1007.057, 3590.000
1008.311, 3610.357
1009.565, 3608.000
1010.818, 3682.000
1012.072, 3707.000
1013.326, 3786.000
1014.579, 3745.000
1015.832, 3843.000
1017.085, 3860.000
1018.338, 3919.000
1019.590, 3968.000
1020.842, 4010.000
1022.095, 4032.000
1023.347, 4096.000
1024.599, 4170.000
1025.850, 4290.000
1027.102, 4302.000
1028.353, 4460.000
1029.604, 4489.000
1030.855, 4610.000
1032.106, 4744.000
1033.356, 4874.000
1034.607, 4869.000
1035.857, 4892.000
1037.107, 4948.000
1038.357, 5056.000
1039.607, 5170.470
1040.856, 5267.000
1042.106, 5526.000
1043.355, 5801.000
1044.604, 6099.000
1045.852, 6518.000
1047.101, 6988.000
1048.350, 7480.000
1049.598, 8272.000
1050.846, 8944.000
1052.094, 10400.000
1053.342, 11800.000
1054.589, 13570.000
1055.837, 15990.000
1057.084, 18770.000
1058.331, 21410.000
1059.578, 24080.000
1060.824, 26130.000
1062.071, 26520.000
1063.317, 24580.000
1064.563, 21970.000
1065.809, 18680.000
1067.055, 15580.000
1068.301, 13490.000
1069.546, 11660.000
1070.791, 10230.000
1072.036, 9030.000
1073.281, 8031.000
1074.526, 7183.000
1075.771, 6637.000
1077.015, 6035.000
1078.259, 5598.000
1079.503, 5289.000
1080.747, 5024.000
1081.991, 4775.000
1083.234, 4687.000
1084.478, 4459.000
1085.721, 4330.000
1086.964, 4289.000
1088.206, 4151.000
1089.449, 4156.000
1090.691, 4032.000
1091.934, 3932.000
1093.176, 3898.000
1094.418, 3849.000
1095.659, 3752.000
1096.901, 3769.000
1098.142, 3753.000
1099.384, 3725.000
1100.625, 3685.000
1101.865, 3634.000
1103.106, 3670.000
1104.347, 3643.000
1105.587, 3572.000
1106.827, 3598.000
1108.067, 3546.000
1109.307, 3568.000
1110.546, 3556.000
1111.786, 3524.000
1113.025, 3513.969
1114.264, 3491.459
1115.503, 3469.000
1116.742, 3460.000
1117.980, 3465.000
1119.219, 3469.000
1120.457, 3455.564
1121.695, 3398.000
1122.933, 3423.000
1124.171, 3410.000
1125.408, 3373.000
1126.645, 3398.000
1127.883, 3318.000
1129.120, 3392.000
1130.356, 3346.000
1131.593, 3304.000
1132.829, 3407.000
1134.066, 3359.000
1135.302, 3347.000
1136.538, 3342.000
1137.773, 3286.000
1139.009, 3375.000
1140.244, 3372.000
1141.480, 3242.000
1142.715, 3363.000
1143.950, 3273.000
1145.184, 3265.000
1146.419, 3351.000
1147.653, 3291.000
1148.887, 3288.000
1150.121, 3275.000
1151.355, 3326.000
1152.589, 3328.000
1153.822, 3295.000
1155.056, 3311.000
1156.289, 3264.000
1157.522, 3264.000
1158.755, 3336.000
1159.987, 3275.000
1161.220, 3267.000
1162.452, 3353.000
1163.684, 3292.000
1164.916, 3258.000
1166.148, 3306.000
1167.379, 3211.000
1168.611, 3336.000
1169.842, 3219.000
1171.073, 3253.000
1172.304, 3280.000
1173.534, 3268.000
1174.765, 3257.000
1175.995, 3309.000
1177.225, 3224.000
1178.455, 3271.000
1179.685, 3235.000
1180.915, 3204.000
1182.144, 3258.000
1183.374, 3221.000
1184.603, 3276.000
1185.832, 3294.000
1187.060, 3197.000
1188.289, 3342.000
1189.518, 3299.000
1190.746, 3286.000
1191.974, 3312.000
1193.202, 3269.000
1194.430, 3303.000
1195.657, 3310.000
1196.884, 3274.000
1198.112, 3286.000
1199.339, 3287.000
1200.566, 3275.000
1201.792, 3275.000
1203.019, 3297.000
1204.245, 3343.000
1205.471, 3334.000
1206.697, 3279.000
1207.923, 3359.000
1209.149, 3278.000
1210.374, 3273.000
1211.600, 3396.000
1212.825, 3252.000
1214.050, 3322.000
1215.275, 3315.000
1216.499, 3324.000
1217.724, 3330.000
1218.948, 3340.000
1220.172, 3333.000
1221.396, 3385.000
1222.620, 3326.000
1223.843, 3318.000
1225.067, 3404.000
1226.290, 3300.000
1227.513, 3423.000
1228.736, 3414.000
1229.959, 3368.000
1231.181, 3427.000
1232.404, 3351.000
1233.626, 3361.000
1234.848, 3414.000
1236.070, 3391.000
1237.291, 3423.000
1238.513, 3460.000
1239.734, 3351.000
1240.955, 3446.000
1242.177, 3381.000
1243.397, 3376.000
1244.618, 3435.000
1245.838, 3373.000
1247.059, 3412.000
1248.279, 3444.000
1249.499, 3362.000
1250.719, 3445.000
1251.938, 3432.000
1253.158, 3376.000
1254.377, 3498.000
1255.596, 3415.000
1256.815, 3485.000
1258.034, 3465.000
1259.253, 3444.000
1260.471, 3487.000
1261.689, 3525.000
1262.907, 3421.000
1264.125, 3476.000
1265.343, 3471.000
1266.561, 3508.000
1267.778, 3505.000
1268.995, 3504.798
1270.212, 3490.000
1271.429, 3489.000
1272.646, 3510.000
1273.862, 3495.000
1275.079, 3502.000
1276.295, 3456.000
1277.511, 3538.000
1278.727, 3476.000
1279.943, 3540.000
1281.158, 3562.000
1282.373, 3501.000
1283.589, 3555.000
1284.804, 3482.000
1286.019, 3526.000
1287.233, 3561.000
1288.448, 3514.000
1289.662, 3488.000
1290.876, 3623.000
1292.090, 3487.000
1293.304, 3549.000
1294.518, 3566.000
1295.731, 3502.000
1296.944, 3582.000
1298.158, 3524.000
1299.371, 3509.000
1300.583, 3574.000
1301.796, 3662.000
1303.008, 3788.000
1304.221, 3636.000
1305.433, 3517.000
1306.645, 3557.000
1307.856, 3562.000
1309.068, 3559.000
1310.280, 3621.000
1311.491, 3463.000
1312.702, 3626.000
1313.913, 3657.000
1315.124, 3502.000
1316.334, 3636.000
1317.545, 3664.000
1318.755, 3635.000
1319.965, 3682.000
1321.175, 3575.000
1322.385, 3622.000
1323.594, 3718.000
1324.804, 3613.000
1326.013, 3721.000
1327.222, 3679.000
1328.431, 3640.000
1329.639, 3763.000
1330.848, 3665.000
1332.056, 3624.000
1333.265, 3783.000
1334.473, 3676.000
1335.680, 3694.000
1336.888, 3796.000
1338.096, 3691.000
1339.303, 3761.000
1340.510, 3752.000
1341.717, 3700.000
1342.924, 3809.000
1344.131, 3727.000
1345.337, 3679.000
1346.544, 3770.000
1347.750, 3668.000
1348.956, 3810.000
1350.162, 3829.000
1351.367, 3706.000
1352.573, 3836.000
1353.778, 3752.000
1354.983, 3734.000
1356.188, 3901.000
1357.393, 3757.000
1358.598, 3822.000
1359.802, 3826.000
1361.007, 3737.000
1362.211, 3763.000
1363.415, 3852.000
1364.619, 3744.000
1365.822, 3905.000
1367.026, 3776.000
1368.229, 3814.000
1369.432, 3883.000
1370.635, 3771.000
1371.838, 3798.000
1373.041, 3862.000
1374.243, 3799.000
1375.446, 3832.000
1376.648, 3799.000
1377.850, 3776.000
1379.052, 3846.000
1380.253, 3736.000
1381.455, 3793.000
1382.656, 3855.000
1383.857, 3764.000
1385.058, 3845.000
1386.259, 3924.000
1387.459, 3833.000
1388.660, 3942.000
1389.860, 3923.000
1391.060, 3858.000
1392.260, 3955.000
1393.460, 3883.000
1394.660, 3934.000
1395.859, 4032.000
1397.059, 3838.000
1398.258, 3968.000
1399.457, 3945.000
1400.655, 3876.000
1401.854, 4052.000
1403.052, 3962.000
1404.251, 3917.000
1405.449, 4055.000
1406.647, 3888.000
1407.845, 3957.000
1409.042, 4038.000
1410.240, 3896.000
1411.437, 4009.000
1412.634, 4012.000
1413.831, 3818.000
1415.028, 4063.000
1416.224, 3976.000
1417.421, 3924.000
1418.617, 4075.000
1419.813, 3920.000
1421.009, 4060.000
1422.205, 4087.000
1423.401, 3997.000
1424.596, 4082.000
1425.791, 4073.000
1426.986, 4006.000
1428.181, 4134.000
1429.376, 4012.000
1430.571, 4006.000
1431.765, 4160.000
1432.960, 4073.000
1434.154, 4122.000
1435.348, 4162.000
1436.541, 4041.000
1437.735, 4125.000
1438.929, 4128.000
1440.122, 4056.000
1441.315, 4154.000
1442.508, 4083.000
1443.701, 4059.000
1444.893, 4185.000
1446.086, 4110.000
1447.278, 4126.000
1448.470, 4254.000
1449.662, 4080.000
1450.854, 4289.000
1452.046, 4248.000
1453.237, 4143.000
1454.428, 4262.000
1455.619, 4255.000
1456.810, 4178.000
1458.001, 4372.000
1459.192, 4167.000
1460.382, 4265.000
1461.573, 4356.000
1462.763, 4242.000
1463.953, 4236.000
1465.143, 4312.000
1466.332, 4213.000
1467.522, 4325.000
1468.711, 4312.000
1469.900, 4194.000
1471.089, 4408.000
1472.278, 4263.000
1473.467, 4271.000
1474.655, 4421.000
1475.843, 4248.000
1477.032, 4372.000
1478.220, 4463.000
1479.407, 4298.000
1480.595, 4388.000
1481.783, 4383.000
1482.970, 4299.000
1484.157, 4411.000
1485.344, 4392.000
1486.531, 4282.000
1487.718, 4504.000
1488.904, 4308.000
1490.090, 4361.000
1491.277, 4478.000
1492.463, 4278.000
1493.648, 4437.000
1494.834, 4518.000
1496.020, 4332.000
1497.205, 4489.000
1498.390, 4390.000
1499.575, 4390.000
1500.760, 4531.000
1501.945, 4380.000
1503.129, 4388.000
1504.314, 4547.000
1505.498, 4366.000
1506.682, 4520.000
1507.866, 4578.000
1509.049, 4357.000
1510.233, 4531.000
1511.416, 4530.000
1512.600, 4362.000
1513.783, 4622.000
1514.966, 4469.000
1516.148, 4465.000
1517.331, 4616.000
1518.513, 4477.000
1519.695, 4500.000
1520.878, 4654.000
1522.059, 4431.000
1523.241, 4636.000
1524.423, 4606.000
1525.604, 4402.000
1526.785, 4592.000
1527.967, 4554.000
1529.147, 4450.000
1530.328, 4703.000
1531.509, 4717.000
##END=



