##NAMES=Actinolite
##RRUFFID=R050336
##IDEAL CHEMISTRY=Ca_2_(Mg_4.5-2.5_Fe^2+^_0.5-2.5_)Si_8_O_22_(OH)_2_
##LOCALITY=Kragerø, Norway
##OWNER=RRUFF
##SOURCE=California Institute of Technology
##DESCRIPTION=Dark green prismatic fragment
##STATUS=The identification of this mineral has been confirmed by X-ray diffraction and chemical analysis
##URL=rruff.info/R050336
##MEASURED CHEMISTRY=([box]_0.62_Na_0.34_K_0.04_)(Ca_1.60_Na_0.40_)_Σ=2_(Mg_3.90_Fe^2+^_0.70_Al_0.20_Ti_0.10_Fe^3+^_0.10_)_Σ=5_(Si_7.52_Al_0.48_)_Σ=8_O_22_((OH)_0.97_F_0.03_)_2_
##PIN_ID=M00375
##ORIENTATION=Laser parallel to b* (0 1 0). Fiducial mark perpendicular to laser is parallel to -c [0 0 -1]
142.3590, 3234.000
143.5880, 3380.000
144.8170, 3610.000
146.0460, 4055.000
147.2750, 4686.000
148.5030, 5453.000
149.7320, 6490.000
150.9600, 7470.000
152.1880, 8766.000
153.4160, 10129.00
154.6440, 11778.00
155.8720, 13675.00
157.0990, 15703.00
158.3270, 17152.00
159.5540, 18337.00
160.7810, 18505.00
162.0080, 17930.00
163.2350, 16661.00
164.4610, 15298.00
165.6880, 14184.00
166.9140, 13158.00
168.1400, 12880.00
169.3660, 13031.00
170.5920, 13307.00
171.8180, 13790.00
173.0430, 14528.00
174.2690, 15351.00
175.4940, 15922.00
176.7190, 16254.00
177.9440, 16212.89
179.1680, 16070.00
180.3930, 15418.00
181.6170, 14525.00
182.8420, 13621.00
184.0660, 12563.00
185.2900, 11675.00
186.5140, 10625.00
187.7370, 9944.000
188.9610, 9336.000
190.1840, 8914.000
191.4070, 8585.000
192.6300, 8309.253
193.8530, 8179.000
195.0760, 8120.000
196.2980, 8115.000
197.5210, 8317.000
198.7430, 8197.000
199.9650, 8625.000
201.1870, 8801.000
202.4090, 9140.000
203.6310, 9400.000
204.8520, 9870.000
206.0730, 10288.00
207.2950, 11170.00
208.5160, 11946.00
209.7360, 12838.00
210.9570, 14055.00
212.1780, 15326.00
213.3980, 16817.00
214.6180, 18283.00
215.8380, 19572.00
217.0580, 21074.00
218.2780, 22523.00
219.4980, 23530.00
220.7170, 24154.00
221.9360, 24158.00
223.1560, 23902.00
224.3750, 22742.00
225.5930, 21273.00
226.8120, 19454.00
228.0310, 17537.00
229.2490, 15520.00
230.4670, 13840.00
231.6850, 12195.00
232.9030, 10922.00
234.1210, 9900.000
235.3380, 9096.000
236.5560, 8392.000
237.7730, 7722.000
238.9900, 7362.000
240.2070, 6935.000
241.4240, 6676.000
242.6410, 6414.000
243.8570, 6391.000
245.0730, 6260.000
246.2900, 6202.000
247.5060, 6166.000
248.7210, 6028.000
249.9370, 5985.000
251.1530, 5924.000
252.3680, 5734.000
253.5830, 5588.000
254.7980, 5425.000
256.0130, 5364.000
257.2280, 5121.000
258.4430, 5147.000
259.6570, 5123.000
260.8720, 4779.000
262.0860, 4668.000
263.3000, 4638.000
264.5130, 4386.000
265.7270, 4337.000
266.9410, 4289.000
268.1540, 4300.000
269.3670, 4257.000
270.5800, 4239.000
271.7930, 4172.000
273.0060, 4124.000
274.2190, 4164.000
275.4310, 4222.000
276.6430, 4325.000
277.8550, 4335.000
279.0670, 4351.000
280.2790, 4463.000
281.4910, 4530.000
282.7020, 4683.000
283.9140, 4853.000
285.1250, 4843.000
286.3360, 5237.000
287.5470, 5336.000
288.7570, 5447.000
289.9680, 5792.000
291.1780, 5936.000
292.3880, 6144.000
293.5990, 6312.000
294.8080, 6671.000
296.0180, 6835.000
297.2280, 6967.000
298.4370, 7365.000
299.6470, 7374.000
300.8560, 7511.000
302.0650, 7434.000
303.2740, 7381.000
304.4820, 7318.000
305.6910, 7025.000
306.8990, 6854.000
308.1070, 6786.000
309.3150, 6586.000
310.5230, 6417.000
311.7310, 6311.000
312.9390, 6239.000
314.1460, 6282.000
315.3530, 6202.000
316.5600, 6176.000
317.7670, 6271.000
318.9740, 6235.000
320.1810, 6227.000
321.3870, 6281.000
322.5930, 6347.689
323.8000, 6521.000
325.0060, 6567.000
326.2110, 6688.000
327.4170, 6804.000
328.6230, 7060.000
329.8280, 6991.000
331.0330, 7063.000
332.2380, 7018.000
333.4430, 6922.000
334.6480, 6770.000
335.8530, 6615.000
337.0570, 6487.000
338.2610, 6075.000
339.4650, 6070.000
340.6690, 5832.000
341.8730, 5511.000
343.0770, 5499.000
344.2800, 5322.000
345.4840, 5137.000
346.6870, 5030.000
347.8900, 4916.000
349.0930, 4810.000
350.2950, 4807.000
351.4980, 4813.000
352.7000, 4742.000
353.9030, 4596.000
355.1050, 4623.000
356.3070, 4657.000
357.5080, 4495.000
358.7100, 4489.000
359.9110, 4514.000
361.1130, 4570.000
362.3140, 4486.000
363.5150, 4570.000
364.7160, 4635.000
365.9160, 4698.000
367.1170, 4795.000
368.3170, 4892.000
369.5170, 4921.000
370.7170, 4974.000
371.9170, 4925.000
373.1170, 5047.000
374.3170, 4943.000
375.5160, 5073.000
376.7150, 5113.000
377.9140, 5283.000
379.1130, 5291.000
380.3120, 5531.000
381.5110, 5789.000
382.7090, 6005.000
383.9070, 6329.000
385.1060, 6816.000
386.3040, 7013.000
387.5010, 7454.000
388.6990, 7706.000
389.8970, 7988.000
391.0940, 8222.000
392.2910, 8144.000
393.4880, 8097.000
394.6850, 7850.000
395.8820, 7430.000
397.0780, 6834.000
398.2750, 6497.000
399.4710, 6056.000
400.6670, 5676.000
401.8630, 5343.000
403.0590, 5225.000
404.2540, 5104.000
405.4500, 5067.000
406.6450, 4997.000
407.8400, 4961.000
409.0350, 5054.000
410.2300, 5172.000
411.4250, 5214.000
412.6190, 5320.000
413.8140, 5283.000
415.0080, 5163.000
416.2020, 5162.000
417.3960, 4941.000
418.5900, 4904.000
419.7830, 4716.000
420.9770, 4574.000
422.1700, 4381.000
423.3630, 4220.000
424.5560, 4130.000
425.7490, 4082.000
426.9410, 4011.000
428.1340, 3944.000
429.3260, 3903.509
430.5180, 3884.000
431.7100, 3817.000
432.9020, 3764.000
434.0940, 3718.000
435.2850, 3652.817
436.4770, 3580.000
437.6680, 3537.000
438.8590, 3504.000
440.0500, 3455.000
441.2410, 3363.000
442.4310, 3348.000
443.6220, 3298.000
444.8120, 3277.000
446.0020, 3264.000
447.1920, 3262.384
448.3820, 3263.604
449.5710, 3283.000
450.7610, 3299.000
451.9500, 3296.000
453.1390, 3346.000
454.3280, 3279.000
455.5170, 3320.000
456.7060, 3401.000
457.8940, 3359.000
459.0830, 3422.000
460.2710, 3409.000
461.4590, 3397.000
462.6470, 3452.000
463.8350, 3439.000
465.0220, 3426.000
466.2100, 3447.063
467.3970, 3426.000
468.5840, 3459.000
469.7710, 3427.000
470.9580, 3444.000
472.1440, 3332.000
473.3310, 3365.000
474.5170, 3353.000
475.7030, 3366.000
476.8890, 3376.000
478.0750, 3304.000
479.2610, 3333.000
480.4460, 3255.000
481.6320, 3298.000
482.8170, 3284.000
484.0020, 3351.000
485.1870, 3348.000
486.3710, 3409.000
487.5560, 3361.000
488.7400, 3410.000
489.9250, 3458.000
491.1090, 3454.000
492.2930, 3487.000
493.4760, 3520.000
494.6600, 3561.000
495.8440, 3599.742
497.0270, 3618.000
498.2100, 3692.000
499.3930, 3723.000
500.5760, 3784.000
501.7580, 3774.000
502.9410, 3842.000
504.1230, 3950.000
505.3060, 3915.000
506.4880, 3881.000
507.6690, 3995.000
508.8510, 3992.000
510.0330, 4117.000
511.2140, 4117.000
512.3950, 4175.000
513.5760, 4192.000
514.7570, 4243.224
515.9380, 4281.648
517.1190, 4340.000
518.2990, 4358.000
519.4800, 4377.000
520.6600, 4405.000
521.8400, 4445.000
523.0190, 4611.000
524.1990, 4651.000
525.3790, 4773.000
526.5580, 4768.000
527.7370, 4925.000
528.9160, 5005.000
530.0950, 5102.000
531.2740, 5091.000
532.4520, 5092.000
533.6310, 5178.000
534.8090, 5132.000
535.9870, 5232.000
537.1650, 5165.000
538.3430, 5034.000
539.5200, 5065.000
540.6980, 5004.000
541.8750, 4886.000
543.0520, 4871.000
544.2290, 4901.000
545.4060, 4762.000
546.5820, 4698.000
547.7590, 4692.000
548.9350, 4464.000
550.1110, 4529.000
551.2870, 4537.000
552.4630, 4401.000
553.6390, 4419.000
554.8140, 4399.000
555.9900, 4286.000
557.1650, 4227.000
558.3400, 4161.792
559.5150, 4097.000
560.6900, 4009.000
561.8640, 3963.000
563.0390, 3862.000
564.2130, 3806.000
565.3870, 3764.000
566.5610, 3719.000
567.7350, 3685.000
568.9080, 3675.000
570.0820, 3654.000
571.2550, 3621.000
572.4280, 3645.000
573.6010, 3618.000
574.7740, 3453.000
575.9470, 3498.000
577.1190, 3408.000
578.2920, 3428.000
579.4640, 3368.000
580.6360, 3332.000
581.8080, 3323.000
582.9790, 3287.000
584.1510, 3156.000
585.3220, 3104.000
586.4940, 3077.000
587.6650, 3084.000
588.8360, 3012.000
590.0060, 3004.000
591.1770, 2966.000
592.3470, 2914.000
593.5180, 2868.000
594.6880, 2871.000
595.8580, 2804.000
597.0280, 2844.000
598.1970, 2788.000
599.3670, 2787.000
600.5360, 2851.000
601.7050, 2821.000
602.8740, 2824.000
604.0430, 2862.000
605.2120, 2866.000
606.3800, 2976.000
607.5490, 2935.000
608.7170, 3033.000
609.8850, 3078.000
611.0530, 3076.000
612.2210, 3175.000
613.3880, 3199.000
614.5560, 3263.000
615.7230, 3307.000
616.8900, 3353.000
618.0570, 3437.000
619.2240, 3517.000
620.3900, 3574.000
621.5570, 3621.000
622.7230, 3714.000
623.8890, 3815.000
625.0550, 3868.000
626.2210, 3958.000
627.3870, 4050.000
628.5520, 4212.000
629.7180, 4363.000
630.8830, 4552.000
632.0480, 4631.000
633.2130, 4760.000
634.3770, 4882.000
635.5420, 5054.042
636.7060, 5280.000
637.8710, 5486.000
639.0350, 5778.000
640.1990, 6107.000
641.3620, 6303.000
642.5260, 6716.000
643.6890, 7067.000
644.8530, 7413.000
646.0160, 7869.000
647.1790, 8268.000
648.3410, 8751.000
649.5040, 9399.000
650.6670, 10057.00
651.8290, 10744.00
652.9910, 11735.00
654.1530, 12533.00
655.3150, 13893.00
656.4770, 15247.00
657.6380, 16942.00
658.7990, 18998.00
659.9610, 21507.00
661.1220, 24546.00
662.2830, 28025.00
663.4430, 32227.00
664.6040, 36619.00
665.7640, 41990.00
666.9240, 47113.00
668.0850, 51695.00
669.2440, 56007.00
670.4040, 59232.00
671.5640, 60251.00
672.7230, 60028.00
673.8830, 57356.00
675.0420, 53050.00
676.2010, 47198.00
677.3590, 40961.00
678.5180, 34750.00
679.6770, 29363.00
680.8350, 24992.00
681.9930, 21207.00
683.1510, 18139.00
684.3090, 15845.00
685.4670, 13978.00
686.6240, 12569.00
687.7810, 11280.00
688.9390, 10306.00
690.0960, 9551.000
691.2530, 8855.000
692.4090, 8375.000
693.5660, 7900.000
694.7220, 7469.000
695.8790, 7075.000
697.0350, 6705.000
698.1910, 6506.000
699.3460, 6144.000
700.5020, 6094.000
701.6570, 5837.000
702.8130, 5809.000
703.9680, 5582.000
705.1230, 5578.000
706.2780, 5434.000
707.4320, 5366.000
708.5870, 5392.000
709.7410, 5378.000
710.8950, 5446.000
712.0490, 5452.000
713.2030, 5360.000
714.3570, 5439.000
715.5100, 5420.000
716.6640, 5507.000
717.8170, 5480.000
718.9700, 5447.000
720.1230, 5516.000
721.2760, 5577.000
722.4280, 5538.000
723.5810, 5614.000
724.7330, 5585.000
725.8850, 5675.000
727.0370, 5714.000
728.1890, 5689.000
729.3400, 5727.000
730.4920, 5809.000
731.6430, 5662.000
732.7940, 5740.000
733.9450, 5656.000
735.0960, 5745.000
736.2460, 5713.000
737.3970, 5625.000
738.5470, 5667.000
739.6970, 5509.000
740.8470, 5531.000
741.9970, 5502.000
743.1470, 5430.000
744.2970, 5391.000
745.4460, 5324.000
746.5950, 5240.000
747.7440, 5187.061
748.8930, 5048.000
750.0420, 5023.000
751.1900, 4901.000
752.3390, 4749.000
753.4870, 4739.000
754.6350, 4581.000
755.7830, 4564.000
756.9310, 4424.000
758.0780, 4249.000
759.2260, 4211.000
760.3730, 4168.000
761.5200, 4006.000
762.6670, 4007.000
763.8140, 3839.000
764.9610, 3837.000
766.1070, 3823.000
767.2530, 3676.000
768.4000, 3561.000
769.5460, 3650.000
770.6910, 3561.000
771.8370, 3467.000
772.9830, 3556.000
774.1280, 3421.000
775.2730, 3462.000
776.4180, 3465.000
777.5630, 3415.000
778.7080, 3388.000
779.8520, 3431.000
780.9970, 3392.083
782.1410, 3420.000
783.2850, 3372.000
784.4290, 3376.000
785.5730, 3353.229
786.7160, 3343.360
787.8600, 3373.000
789.0030, 3332.000
790.1460, 3340.000
791.2890, 3329.000
792.4320, 3283.000
793.5750, 3319.000
794.7170, 3268.000
795.8590, 3287.000
797.0020, 3293.000
798.1440, 3267.000
799.2850, 3255.000
800.4270, 3232.000
801.5690, 3149.000
802.7100, 3134.000
803.8510, 3058.000
804.9920, 3020.000
806.1330, 3014.000
807.2740, 3012.000
808.4140, 3020.000
809.5550, 2943.000
810.6950, 3014.000
811.8350, 2922.000
812.9750, 2925.000
814.1150, 2940.000
815.2540, 2864.000
816.3940, 2903.000
817.5330, 2860.000
818.6720, 2919.000
819.8110, 2922.000
820.9500, 2864.000
822.0880, 2973.000
823.2270, 2936.793
824.3650, 2933.000
825.5030, 2933.000
826.6410, 2886.000
827.7790, 2837.000
828.9170, 2822.346
830.0540, 2779.000
831.1920, 2770.000
832.3290, 2776.000
833.4660, 2756.000
834.6030, 2756.000
835.7390, 2758.417
836.8760, 2763.000
838.0120, 2755.000
839.1480, 2784.000
840.2840, 2760.000
841.4200, 2758.000
842.5560, 2800.000
843.6920, 2808.000
844.8270, 2760.000
845.9620, 2813.000
847.0970, 2752.000
848.2320, 2802.000
849.3670, 2805.000
850.5020, 2799.000
851.6360, 2772.000
852.7700, 2797.635
853.9040, 2764.000
855.0380, 2819.000
856.1720, 2795.000
857.3060, 2767.000
858.4390, 2786.000
859.5730, 2758.000
860.7060, 2736.000
861.8390, 2747.000
862.9720, 2756.000
864.1040, 2732.000
865.2370, 2712.000
866.3690, 2791.000
867.5010, 2781.000
868.6330, 2730.000
869.7650, 2856.000
870.8970, 2867.000
872.0290, 2826.000
873.1600, 2900.000
874.2910, 2824.000
875.4220, 3034.000
876.5530, 2982.000
877.6840, 2948.000
878.8140, 3077.000
879.9450, 3015.000
881.0750, 3105.000
882.2050, 3211.000
883.3350, 3215.000
884.4650, 3224.000
885.5950, 3229.000
886.7240, 3265.000
887.8530, 3303.140
888.9820, 3357.000
890.1110, 3410.000
891.2400, 3480.000
892.3690, 3539.000
893.4970, 3514.000
894.6260, 3591.000
895.7540, 3631.000
896.8820, 3672.000
898.0100, 3776.000
899.1370, 3779.000
900.2650, 3883.000
901.3920, 3837.000
902.5200, 3949.000
903.6470, 4090.000
904.7730, 4092.000
905.9000, 4337.000
907.0270, 4323.000
908.1530, 4538.000
909.2790, 4677.000
910.4050, 4849.000
911.5310, 4969.000
912.6570, 5258.000
913.7830, 5352.000
914.9080, 5543.000
916.0330, 5906.000
917.1580, 6160.000
918.2830, 6393.000
919.4080, 6747.000
920.5330, 7105.000
921.6570, 7418.000
922.7820, 7726.000
923.9060, 8069.000
925.0300, 8415.000
926.1540, 8545.000
927.2770, 8733.000
928.4010, 8545.000
929.5240, 8421.000
930.6470, 8108.000
931.7700, 7706.000
932.8930, 7303.000
934.0160, 6886.000
935.1380, 6445.000
936.2610, 6142.000
937.3830, 5812.000
938.5050, 5461.000
939.6270, 5264.000
940.7490, 5072.000
941.8700, 4973.000
942.9910, 4790.000
944.1130, 4740.000
945.2340, 4653.000
946.3550, 4584.000
947.4750, 4533.000
948.5960, 4477.000
949.7160, 4427.337
950.8370, 4369.203
951.9570, 4321.000
953.0770, 4272.000
954.1970, 4232.782
955.3160, 4173.000
956.4360, 4156.000
957.5550, 4093.000
958.6740, 4038.000
959.7930, 4071.000
960.9120, 3991.000
962.0310, 4015.000
963.1490, 4083.000
964.2670, 4003.000
965.3860, 3958.000
966.5040, 3958.000
967.6210, 4022.000
968.7390, 3869.000
969.8570, 3901.000
970.9740, 3820.000
972.0910, 3849.000
973.2080, 3823.000
974.3250, 3816.000
975.4420, 3830.000
976.5580, 3715.000
977.6750, 3680.000
978.7910, 3619.000
979.9070, 3600.000
981.0230, 3624.000
982.1390, 3620.000
983.2540, 3553.000
984.3700, 3606.000
985.4850, 3571.000
986.6000, 3651.000
987.7150, 3618.000
988.8300, 3636.000
989.9450, 3588.000
991.0590, 3664.000
992.1730, 3679.000
993.2880, 3749.000
994.4010, 3778.000
995.5150, 3794.000
996.6290, 3893.000
997.7420, 3936.000
998.8560, 4004.000
999.9690, 4081.000
1001.082, 4214.000
1002.195, 4219.000
1003.307, 4330.000
1004.420, 4349.000
1005.532, 4408.000
1006.645, 4407.000
1007.757, 4461.000
1008.868, 4508.000
1009.980, 4582.000
1011.092, 4570.000
1012.203, 4732.000
1013.314, 4701.000
1014.425, 4699.000
1015.536, 4909.000
1016.647, 4871.000
1017.758, 4952.000
1018.868, 5008.000
1019.978, 5044.000
1021.088, 5167.000
1022.198, 5298.000
1023.308, 5440.000
1024.418, 5533.000
1025.527, 5624.000
1026.637, 5748.000
1027.746, 5908.000
1028.855, 6017.000
1029.963, 6226.000
1031.072, 6404.000
1032.181, 6660.000
1033.289, 6757.000
1034.397, 7116.000
1035.505, 7349.000
1036.613, 7703.000
1037.721, 7945.000
1038.828, 8381.000
1039.935, 8923.000
1041.043, 9218.000
1042.150, 9807.000
1043.257, 10162.00
1044.363, 11088.00
1045.470, 11644.00
1046.576, 12293.00
1047.682, 13184.00
1048.788, 14157.00
1049.894, 14894.00
1051.000, 15983.00
1052.106, 16980.00
1053.211, 17949.00
1054.316, 18790.00
1055.421, 19550.00
1056.526, 20150.00
1057.631, 20256.00
1058.736, 20166.00
1059.840, 19671.00
1060.944, 18964.00
1062.049, 17962.00
1063.153, 16892.00
1064.256, 15757.00
1065.360, 14337.00
1066.463, 13041.00
1067.567, 11773.00
1068.670, 10846.00
1069.773, 9825.000
1070.876, 9025.000
1071.978, 8136.000
1073.081, 7502.348
1074.183, 7021.000
1075.285, 6478.000
1076.387, 6043.000
1077.489, 5798.000
1078.591, 5386.000
1079.692, 5136.000
1080.794, 4978.000
1081.895, 4745.000
1082.996, 4509.000
1084.097, 4371.000
1085.198, 4139.000
1086.298, 4135.000
1087.399, 3955.000
1088.499, 3763.000
1089.599, 3734.000
1090.699, 3566.000
1091.799, 3517.000
1092.898, 3481.000
1093.998, 3425.000
1095.097, 3235.000
1096.196, 3279.000
1097.295, 3209.000
1098.394, 3160.000
1099.492, 3172.000
1100.591, 3122.000
1101.689, 3045.000
1102.787, 2942.000
1103.885, 2975.000
1104.983, 2951.000
1106.081, 2868.000
1107.178, 2858.000
1108.275, 2857.000
1109.373, 2870.000
1110.470, 2864.000
1111.566, 2837.271
1112.663, 2738.000
1113.760, 2780.000
1114.856, 2712.000
1115.952, 2704.000
1117.048, 2683.000
1118.144, 2656.000
1119.240, 2616.734
1120.335, 2603.000
1121.431, 2519.000
1122.526, 2483.000
1123.621, 2432.000
1124.716, 2477.000
1125.810, 2404.000
1126.905, 2416.000
1127.999, 2364.000
1129.094, 2338.000
1130.188, 2355.000
1131.282, 2297.000
1132.375, 2353.000
1133.469, 2283.000
1134.562, 2254.000
1135.656, 2273.000
1136.749, 2211.000
1137.842, 2166.000
1138.935, 2186.000
1140.027, 2167.000
1141.120, 2170.000
1142.212, 2129.000
1143.304, 2077.000
1144.396, 2089.000
1145.488, 2036.000
1146.579, 2038.000
1147.671, 2024.000
1148.762, 1987.000
1149.853, 1999.000
1150.944, 1970.000
1152.035, 1957.000
1153.126, 1939.000
1154.216, 1952.000
1155.307, 1952.000
1156.397, 1934.000
1157.487, 1880.000
1158.577, 1906.000
1159.667, 1858.000
1160.756, 1844.000
1161.846, 1866.000
1162.935, 1848.000
1164.024, 1879.000
1165.113, 1851.000
1166.201, 1832.000
1167.290, 1771.000
1168.378, 1806.000
1169.467, 1846.000
1170.555, 1869.000
1171.643, 1813.000
1172.730, 1833.000
1173.818, 1800.000
1174.905, 1833.000
1175.993, 1843.000
1177.080, 1810.000
1178.167, 1786.000
1179.254, 1807.000
1180.340, 1806.000
1181.427, 1810.000
1182.513, 1806.000
1183.599, 1832.000
1184.685, 1781.000
1185.771, 1843.000
1186.856, 1755.000
1187.942, 1827.000
1189.027, 1817.000
1190.112, 1821.000
1191.197, 1782.000
1192.282, 1769.000
1193.367, 1761.000
1194.451, 1752.581
1195.536, 1821.000
1196.620, 1761.000
1197.704, 1802.000
1198.788, 1816.000
1199.872, 1777.000
1200.955, 1796.000
1202.039, 1782.000
1203.122, 1766.000
1204.205, 1847.000
1205.288, 1799.000
1206.370, 1763.000
1207.453, 1816.000
1208.535, 1791.000
1209.618, 1756.000
1210.700, 1759.000
1211.782, 1741.000
1212.863, 1763.000
1213.945, 1810.000
1215.026, 1772.000
1216.108, 1794.000
1217.189, 1794.000
1218.270, 1790.000
1219.351, 1824.000
1220.431, 1811.000
1221.512, 1829.000
1222.592, 1827.236
1223.672, 1839.000
1224.752, 1811.000
1225.832, 1800.000
1226.911, 1776.000
1227.991, 1762.000
1229.070, 1770.533
1230.149, 1775.461
1231.228, 1788.000
1232.307, 1804.000
1233.386, 1799.000
1234.464, 1791.000
1235.543, 1775.000
1236.621, 1798.000
1237.699, 1797.000
1238.777, 1797.000
1239.855, 1787.000
1240.932, 1791.999
1242.009, 1784.000
1243.087, 1797.000
1244.164, 1792.045
1245.241, 1794.944
1246.317, 1790.000
1247.394, 1788.000
1248.470, 1774.000
1249.546, 1772.042
1250.623, 1773.577
1251.698, 1783.000
1252.774, 1785.000
1253.850, 1810.000
1254.925, 1825.000
1256.000, 1827.427
1257.076, 1787.000
1258.150, 1817.000
1259.225, 1805.000
1260.300, 1761.000
1261.374, 1831.000
1262.449, 1808.000
1263.523, 1756.000
1264.597, 1848.000
1265.670, 1870.000
1266.744, 1830.000
1267.818, 1766.000
1268.891, 1849.000
1269.964, 1836.000
1271.037, 1841.000
1272.110, 1844.000
1273.183, 1847.000
1274.255, 1856.000
1275.327, 1808.000
1276.400, 1810.000
1277.472, 1823.000
1278.543, 1788.000
1279.615, 1807.000
1280.687, 1890.000
1281.758, 1818.000
1282.829, 1838.000
1283.900, 1892.000
1284.971, 1862.000
1286.042, 1834.000
1287.112, 1818.000
1288.183, 1829.924
1289.253, 1875.000
1290.323, 1861.000
1291.393, 1889.000
1292.463, 1877.000
1293.532, 1882.000
1294.602, 1852.000
1295.671, 1859.000
1296.740, 1917.000
1297.809, 1819.000
1298.878, 1864.000
1299.946, 1889.000
1301.015, 1866.000
1302.083, 1914.000
1303.151, 1799.000
1304.219, 1830.000
1305.287, 1825.000
1306.354, 1878.000
1307.422, 1804.000
1308.489, 1858.000
1309.556, 1855.000
1310.623, 1791.000
1311.690, 1891.000
1312.757, 1855.000
1313.823, 1807.000
1314.890, 1824.000
1315.956, 1853.000
1317.022, 1850.000
1318.088, 1892.000
1319.153, 1839.000
1320.219, 1833.000
1321.284, 1868.000
1322.349, 1859.000
1323.414, 1809.000
1324.479, 1882.000
1325.544, 1832.000
1326.608, 1867.000
1327.673, 1816.000
1328.737, 1870.000
1329.801, 1837.000
1330.865, 1835.000
1331.929, 1850.000
1332.992, 1884.000
1334.056, 1837.000
1335.119, 1898.000
1336.182, 1889.000
1337.245, 1824.000
1338.308, 1854.000
1339.370, 1844.000
1340.433, 1842.000
1341.495, 1864.000
1342.557, 1828.000
1343.619, 1857.000
1344.681, 1850.000
1345.742, 1885.000
1346.804, 1812.000
1347.865, 1892.000
1348.926, 1865.000
1349.987, 1831.000
1351.048, 1850.000
1352.108, 1840.000
1353.169, 1781.000
1354.229, 1774.000
1355.289, 1801.000
1356.349, 1837.000
1357.409, 1835.000
1358.469, 1798.000
1359.528, 1784.000
1360.588, 1843.000
1361.647, 1779.000
1362.706, 1872.000
1363.765, 1793.000
1364.823, 1793.000
1365.882, 1766.000
1366.940, 1770.000
1367.998, 1830.000
1369.056, 1759.000
1370.114, 1795.000
1371.172, 1807.000
1372.229, 1785.000
1373.287, 1759.000
1374.344, 1804.000
1375.401, 1772.000
1376.458, 1836.000
1377.515, 1797.000
1378.571, 1796.000
1379.628, 1816.000
1380.684, 1737.000
1381.740, 1753.000
1382.796, 1736.000
1383.852, 1770.000
1384.907, 1763.000
1385.963, 1767.000
1387.018, 1832.000
1388.073, 1791.000
1389.128, 1807.000
1390.183, 1746.000
1391.237, 1806.000
1392.292, 1770.000
1393.346, 1763.000
1394.400, 1800.000
1395.454, 1808.000
1396.508, 1770.000
1397.562, 1772.000
1398.615, 1776.000
1399.668, 1751.000
1400.722, 1755.000
1401.775, 1756.000
1402.827, 1751.298
1403.880, 1739.000
1404.933, 1771.000
1405.985, 1759.000
1407.037, 1798.000
1408.089, 1773.000
1409.141, 1780.000
1410.193, 1772.000
1411.244, 1816.000
1412.295, 1782.000
1413.347, 1827.000
1414.398, 1770.000
1415.449, 1760.000
1416.499, 1817.000
1417.550, 1756.000
1418.600, 1786.000
1419.650, 1780.000
1420.700, 1774.000
1421.750, 1828.000
1422.800, 1818.000
1423.850, 1822.450
1424.899, 1773.000
1425.948, 1812.000
1426.997, 1795.000
1428.046, 1790.000
1429.095, 1774.000
1430.144, 1796.000
1431.192, 1777.000
1432.240, 1832.000
1433.288, 1823.438
1434.336, 1858.000
1435.384, 1835.000
1436.432, 1832.000
1437.479, 1834.000
1438.526, 1837.000
1439.574, 1833.000
1440.621, 1860.000
1441.667, 1822.000
1442.714, 1857.000
1443.760, 1856.000
1444.807, 1852.000
1445.853, 1850.000
1446.899, 1842.505
1447.945, 1832.523
1448.990, 1824.000
1450.036, 1825.000
1451.081, 1812.000
1452.126, 1845.000
1453.171, 1880.000
1454.216, 1856.000
1455.261, 1823.000
1456.305, 1853.000
1457.350, 1879.000
1458.394, 1783.000
1459.438, 1804.000
1460.482, 1777.000
1461.526, 1818.000
1462.569, 1839.000
1463.612, 1856.000
1464.656, 1812.000
1465.699, 1795.000
1466.742, 1819.000
1467.784, 1867.000
1468.827, 1822.000
1469.869, 1819.000
1470.912, 1778.000
1471.954, 1862.000
1472.996, 1834.000
1474.037, 1856.000
1475.079, 1808.000
1476.120, 1779.000
1477.162, 1784.000
1478.203, 1793.000
1479.244, 1774.000
1480.284, 1782.505
1481.325, 1818.000
1482.365, 1785.000
1483.406, 1807.000
1484.446, 1818.000
1485.486, 1801.000
1486.526, 1829.000
1487.565, 1805.000
1488.605, 1797.000
1489.644, 1787.000
1490.683, 1818.000
1491.722, 1806.000
1492.761, 1795.000
1493.800, 1772.000
1494.838, 1758.000
1495.876, 1808.000
1496.915, 1793.000
1497.953, 1776.000
1498.990, 1814.000
1500.028, 1805.000
1501.066, 1789.000
1502.103, 1794.000
1503.140, 1790.000
1504.177, 1788.000
1505.214, 1817.000
1506.251, 1800.000
1507.287, 1784.000
1508.324, 1766.000
1509.360, 1835.000
1510.396, 1785.000
1511.432, 1833.000
1512.468, 1745.000
1513.503, 1800.000
1514.538, 1807.000
1515.574, 1779.000
1516.609, 1783.000
1517.644, 1821.000
1518.678, 1795.000
1519.713, 1785.000
1520.747, 1830.000
1521.782, 1762.000
1522.816, 1801.000
1523.850, 1762.000
1524.883, 1784.000
1525.917, 1737.000
1526.951, 1800.000
1527.984, 1791.000
1529.017, 1831.000
1530.050, 1791.000
1531.083, 1782.000
1532.115, 1850.000
1533.148, 1812.000
1534.180, 1770.000
1535.212, 1816.000
1536.244, 1811.000
1537.276, 1812.000
1538.308, 1764.000
1539.339, 1815.000
1540.370, 1788.000
1541.402, 1809.000
1542.433, 1819.000
1543.463, 1819.000
1544.494, 1825.602
1545.525, 1783.000
1546.555, 1816.000
1547.585, 1794.000
1548.615, 1772.000
1549.645, 1802.000
1550.675, 1827.000
1551.704, 1814.000
1552.734, 1902.000
1553.763, 1882.000
1554.792, 1872.000
1555.821, 1857.000
1556.849, 1898.000
1557.878, 1808.000
1558.906, 1851.000
1559.935, 1807.000
1560.963, 1796.000
1561.991, 1907.000
##END=



