##NAMES=Arsenopyrite
##RRUFFID=R050071
##IDEAL CHEMISTRY=Fe^3+^(AsS)^3-^
##LOCALITY=Yaogangxian mine, Yizhang County, Hunan Province, China
##OWNER=RRUFF
##SOURCE=Rock Currier
##DESCRIPTION=Steel-gray tabular
##STATUS=The identification of this mineral has been confirmed by X-ray diffraction and chemical analysis
##URL=rruff.info/R050071
##MEASURED CHEMISTRY=FeAsS
##PIN_ID=L00167
##ORIENTATION=Laser parallel to (1 0 1). Fiducial mark perpendicular to laser is parallel to b [0 1 0]
73.71400, 21416.00
74.95100, 25239.00
76.18700, 29248.00
77.42300, 32233.00
78.65900, 34037.00
79.89500, 33202.00
81.13100, 29689.00
82.36700, 27118.00
83.60200, 28026.00
84.83700, 24027.00
86.07200, 23005.00
87.30800, 22690.00
88.54200, 22654.00
89.77700, 23045.00
91.01200, 23661.00
92.24600, 24478.00
93.48000, 24211.00
94.71400, 23880.00
95.94800, 23773.00
97.18200, 23322.00
98.41600, 23266.00
99.64900, 23415.00
100.8830, 23491.00
102.1160, 23039.00
103.3490, 23311.00
104.5820, 24015.00
105.8150, 25209.00
107.0470, 26669.00
108.2800, 29915.00
109.5120, 29448.18
110.7440, 33059.00
111.9760, 30639.00
113.2080, 31758.00
114.4400, 34828.00
115.6710, 38256.00
116.9030, 42285.00
118.1340, 50546.00
119.3650, 56675.00
120.5960, 56491.00
121.8270, 60756.00
123.0580, 54480.00
124.2880, 34530.00
125.5190, 25858.00
126.7490, 23766.00
127.9790, 23291.00
129.2090, 23239.00
130.4390, 23279.00
131.6680, 23319.00
132.8980, 23329.00
134.1270, 23342.34
135.3560, 23148.00
136.5850, 23392.00
137.8140, 23249.00
139.0430, 23373.00
140.2710, 23596.00
141.5000, 22924.00
142.7280, 22853.00
143.9560, 22655.00
145.1840, 22719.00
146.4120, 22666.00
147.6390, 22537.00
148.8670, 22620.00
150.0940, 22522.00
151.3210, 22792.00
152.5490, 22763.67
153.7750, 23103.00
155.0020, 22843.00
156.2290, 22778.00
157.4550, 22736.00
158.6810, 22748.00
159.9080, 22717.00
161.1340, 23173.00
162.3590, 23409.00
163.5850, 23775.00
164.8110, 23723.00
166.0360, 23632.00
167.2610, 22917.00
168.4860, 22787.00
169.7110, 22669.00
170.9360, 23031.00
172.1610, 22766.00
173.3850, 22802.00
174.6100, 22592.00
175.8340, 23053.00
177.0580, 23116.00
178.2820, 22918.00
179.5050, 22951.00
180.7290, 22681.00
181.9520, 22509.00
183.1760, 22729.00
184.3990, 22621.00
185.6220, 22659.00
186.8450, 22868.00
188.0670, 22905.00
189.2900, 22908.00
190.5120, 23348.00
191.7340, 23457.00
192.9560, 23453.00
194.1780, 23552.00
195.4000, 23633.00
196.6220, 23602.00
197.8430, 23585.00
199.0640, 23832.00
200.2860, 23634.00
201.5070, 23808.00
202.7270, 23800.00
203.9480, 23519.00
205.1690, 22967.00
206.3890, 22613.00
207.6090, 22254.00
208.8290, 22356.00
210.0490, 22274.00
211.2690, 22289.00
212.4890, 22433.00
213.7080, 22526.00
214.9280, 22734.00
216.1470, 22462.00
217.3660, 22423.00
218.5850, 22542.00
219.8030, 22433.00
221.0220, 22488.00
222.2400, 22548.00
223.4590, 22465.00
224.6770, 22556.00
225.8950, 22670.00
227.1120, 22443.00
228.3300, 22395.00
229.5480, 22463.00
230.7650, 22270.00
231.9820, 22455.00
233.1990, 22453.00
234.4160, 22268.00
235.6330, 22321.00
236.8490, 22433.00
238.0660, 22485.00
239.2820, 22461.00
240.4980, 22458.00
241.7140, 22545.00
242.9300, 22559.00
244.1460, 22439.00
245.3610, 22628.00
246.5770, 22644.00
247.7920, 22550.00
249.0070, 22589.00
250.2220, 22678.00
251.4370, 22564.00
252.6510, 22659.00
253.8660, 22813.00
255.0800, 22954.00
256.2940, 23128.00
257.5080, 23378.00
258.7220, 25670.00
259.9360, 24854.05
261.1490, 24915.51
262.3630, 24481.00
263.5760, 23799.00
264.7890, 23498.00
266.0020, 23538.00
267.2150, 23760.00
268.4270, 24063.00
269.6400, 23805.00
270.8520, 23702.00
272.0640, 23635.00
273.2760, 23285.00
274.4880, 23276.00
275.7000, 23170.00
276.9120, 23489.00
278.1230, 23296.00
279.3340, 23165.00
280.5450, 23315.00
281.7560, 23057.00
282.9670, 23250.00
284.1780, 23238.00
285.3880, 23098.00
286.5980, 23336.00
287.8090, 23232.00
289.0190, 23278.00
290.2290, 23274.00
291.4380, 23351.00
292.6480, 23287.00
293.8570, 23295.00
295.0670, 23339.69
296.2760, 23297.00
297.4850, 23385.00
298.6930, 23370.00
299.9020, 23322.00
301.1110, 23341.00
302.3190, 23382.00
303.5270, 23507.00
304.7350, 23524.00
305.9430, 23579.00
307.1510, 23513.00
308.3580, 23625.00
309.5660, 23571.00
310.7730, 23462.00
311.9800, 23643.00
313.1870, 23647.00
314.3940, 23673.00
315.6010, 23558.00
316.8070, 23774.00
318.0130, 23877.00
319.2200, 23668.00
320.4260, 23707.00
321.6310, 24014.00
322.8370, 23863.00
324.0430, 23926.00
325.2480, 24001.00
326.4540, 24025.00
327.6590, 23975.00
328.8640, 23849.00
330.0680, 23983.00
331.2730, 23852.00
332.4780, 24001.00
333.6820, 24009.00
334.8860, 23919.00
336.0900, 24014.00
337.2940, 24142.00
338.4980, 24048.00
339.7010, 24183.00
340.9050, 24081.00
342.1080, 24038.00
343.3110, 24248.00
344.5140, 24263.00
345.7170, 24167.00
346.9200, 24158.00
348.1220, 24228.00
349.3240, 24250.00
350.5270, 24068.00
351.7290, 24153.00
352.9310, 24231.00
354.1320, 24050.00
355.3340, 24170.00
356.5350, 24149.00
357.7370, 24237.00
358.9380, 24158.00
360.1390, 24172.00
361.3400, 24336.00
362.5400, 24274.00
363.7410, 24228.00
364.9410, 24171.00
366.1410, 24132.00
367.3410, 24297.00
368.5410, 24383.00
369.7410, 24432.00
370.9400, 24338.00
372.1400, 24510.00
373.3390, 24343.00
374.5380, 24455.00
375.7370, 24347.00
376.9360, 24339.00
378.1350, 24347.00
379.3330, 24354.49
380.5310, 24383.74
381.7300, 24443.00
382.9280, 24478.00
384.1260, 24502.00
385.3230, 24591.00
386.5210, 24347.00
387.7180, 24605.00
388.9160, 24471.00
390.1130, 24461.00
391.3100, 24665.00
392.5060, 24647.00
393.7030, 24614.00
394.9000, 24694.00
396.0960, 24516.00
397.2920, 24725.00
398.4880, 24912.00
399.6840, 24848.00
400.8800, 24824.00
402.0750, 24859.00
403.2710, 24813.00
404.4660, 24980.00
405.6610, 24920.00
406.8560, 24917.00
408.0510, 24846.00
409.2450, 24956.00
410.4400, 25156.00
411.6340, 25028.00
412.8280, 25049.00
414.0220, 24891.00
415.2160, 24883.00
416.4100, 25106.00
417.6030, 24932.00
418.7970, 24879.00
419.9900, 25016.00
421.1830, 24972.00
422.3760, 24992.00
423.5690, 24939.00
424.7610, 24872.00
425.9540, 24969.00
427.1460, 24943.95
428.3380, 25056.00
429.5300, 25010.00
430.7220, 25093.00
431.9140, 25116.00
433.1050, 25101.00
434.2970, 25323.00
435.4880, 25170.00
436.6790, 25357.00
437.8700, 25206.00
439.0610, 25176.00
440.2510, 25435.00
441.4420, 25357.00
442.6320, 25414.00
443.8220, 25741.00
445.0120, 25305.00
446.2020, 25326.00
447.3910, 25479.00
448.5810, 25324.00
449.7700, 25323.00
450.9600, 25338.00
452.1490, 25405.00
453.3370, 25418.98
454.5260, 25469.00
455.7150, 25474.00
456.9030, 25433.00
458.0910, 25407.00
459.2800, 25688.00
460.4670, 25535.00
461.6550, 25675.00
462.8430, 25632.00
464.0300, 25738.00
465.2180, 25425.00
466.4050, 25655.00
467.5920, 25521.00
468.7790, 25536.00
469.9650, 25789.00
471.1520, 25889.00
472.3380, 25741.00
473.5250, 25680.00
474.7110, 25885.00
475.8970, 25816.00
477.0820, 25840.00
478.2680, 25821.00
479.4540, 26031.00
480.6390, 25821.00
481.8240, 26022.00
483.0090, 25770.00
484.1940, 25985.00
485.3780, 26304.00
486.5630, 26002.00
487.7470, 25986.00
488.9320, 25921.00
490.1160, 25829.00
491.3000, 26040.00
492.4830, 26302.00
493.6670, 26018.00
494.8500, 26146.00
496.0340, 26073.00
497.2170, 26004.00
498.4000, 26321.00
499.5820, 26235.00
500.7650, 26247.00
501.9480, 26191.00
503.1300, 26170.00
504.3120, 26171.00
505.4940, 26180.16
506.6760, 26221.00
507.8580, 26272.00
509.0390, 26327.00
510.2210, 26431.00
511.4020, 26173.00
512.5830, 26207.00
513.7640, 26493.00
514.9450, 26327.00
516.1250, 26504.00
517.3060, 26511.00
518.4860, 26566.00
519.6660, 26614.00
520.8460, 26594.00
522.0260, 26638.00
523.2060, 26732.00
524.3850, 26543.00
525.5650, 26417.00
526.7440, 26463.00
527.9230, 26532.00
529.1020, 26656.00
530.2810, 26477.00
531.4590, 26308.00
532.6380, 26538.00
533.8160, 26621.00
534.9940, 26589.00
536.1720, 26637.00
537.3500, 26468.00
538.5270, 26699.00
539.7050, 26602.00
540.8820, 26638.00
542.0590, 26779.00
543.2360, 26465.00
544.4130, 26626.00
545.5900, 26901.00
546.7660, 26620.00
547.9430, 27037.00
549.1190, 26974.00
550.2950, 26936.00
551.4710, 26964.00
552.6470, 26984.00
553.8220, 27067.00
554.9980, 27097.61
556.1730, 26905.00
557.3480, 27054.00
558.5230, 27136.00
559.6980, 26798.00
560.8730, 26833.00
562.0470, 27029.00
563.2220, 27114.00
564.3960, 26901.00
565.5700, 27095.00
566.7440, 27004.00
567.9170, 27089.00
569.0910, 26992.00
570.2640, 27004.00
571.4380, 27083.00
572.6110, 26908.00
573.7840, 26970.00
574.9570, 26938.00
576.1290, 26861.00
577.3020, 26862.00
578.4740, 26744.00
579.6460, 26609.00
580.8180, 26690.00
581.9900, 26636.00
583.1620, 26771.00
584.3330, 26653.00
585.5040, 26609.00
586.6760, 26576.00
587.8470, 26645.00
589.0180, 26467.00
590.1880, 26345.00
591.3590, 26424.00
592.5290, 26423.00
593.7000, 26874.00
594.8700, 26687.00
596.0400, 26649.00
597.2090, 26540.00
598.3790, 26464.00
599.5490, 26461.01
600.7180, 26468.00
601.8870, 26540.00
603.0560, 26421.00
604.2250, 26624.00
605.3940, 26495.00
606.5620, 26428.00
607.7300, 26591.00
608.8990, 26462.00
610.0670, 26667.00
611.2350, 26491.00
612.4020, 26492.00
613.5700, 26636.00
614.7370, 26701.00
615.9050, 26721.00
617.0720, 26677.00
618.2390, 26520.00
619.4060, 26631.00
620.5720, 26689.00
621.7390, 26745.00
622.9050, 26925.00
624.0710, 26635.00
625.2370, 26771.00
626.4030, 26887.00
627.5690, 26561.00
628.7340, 26625.00
629.9000, 26452.00
631.0650, 26542.00
632.2300, 26562.83
633.3950, 26623.00
634.5600, 26642.00
635.7240, 26749.00
636.8890, 26689.00
638.0530, 26843.00
639.2170, 26700.00
640.3810, 26752.00
641.5450, 26918.00
642.7080, 26744.00
643.8720, 26546.00
645.0350, 26768.00
646.1980, 26682.00
647.3610, 26706.00
648.5240, 26728.00
649.6870, 26655.00
650.8490, 26672.00
652.0120, 26781.00
653.1740, 26544.00
654.3360, 26928.00
655.4980, 26814.00
656.6600, 26682.00
657.8210, 26539.00
658.9830, 26816.00
660.1440, 26512.00
661.3050, 26866.00
662.4660, 26619.00
663.6270, 26665.00
664.7870, 26750.00
665.9480, 26592.00
667.1080, 26769.00
668.2680, 26522.00
669.4280, 26680.00
670.5880, 26706.00
671.7480, 26911.00
672.9070, 26784.00
674.0670, 26681.00
675.2260, 26786.00
676.3850, 26690.00
677.5440, 26613.00
678.7030, 26744.00
679.8610, 26757.00
681.0200, 26878.00
682.1780, 26702.00
683.3360, 26798.00
684.4940, 26750.00
685.6520, 26683.00
686.8090, 26953.00
687.9670, 26757.00
689.1240, 26823.00
690.2810, 26776.00
691.4380, 26721.00
692.5950, 26759.00
693.7520, 26697.00
694.9080, 26740.00
696.0650, 26761.00
697.2210, 26861.00
698.3770, 26767.00
699.5330, 26931.00
700.6880, 26912.00
701.8440, 26844.00
702.9990, 26743.00
704.1550, 26762.00
705.3100, 26566.00
706.4650, 26821.00
707.6190, 26943.00
708.7740, 26984.00
709.9290, 26963.00
711.0830, 26989.49
712.2370, 26918.00
713.3910, 26904.00
714.5450, 26980.00
715.6980, 26871.00
716.8520, 26667.00
718.0050, 26742.00
719.1580, 26551.00
720.3110, 26765.00
721.4640, 26944.00
722.6170, 27071.00
723.7700, 26941.00
724.9220, 26693.00
726.0740, 27018.00
727.2260, 26852.00
728.3780, 27035.00
729.5300, 26967.00
730.6810, 27010.00
731.8330, 27064.00
732.9840, 27173.00
734.1350, 26888.00
735.2860, 26882.00
736.4370, 27057.00
737.5880, 27018.00
738.7380, 27280.00
739.8880, 27192.00
741.0390, 26929.00
742.1890, 26941.00
743.3380, 27062.00
744.4880, 26913.00
745.6380, 27128.00
746.7870, 27135.00
747.9360, 27197.00
749.0850, 27252.00
750.2340, 26930.00
751.3830, 27053.00
752.5310, 27220.00
753.6800, 27208.00
754.8280, 27484.00
755.9760, 27511.00
757.1240, 27159.00
758.2720, 27406.00
759.4190, 27234.00
760.5670, 27234.00
761.7140, 27157.00
762.8610, 27252.00
764.0080, 27172.74
765.1550, 27170.00
766.3020, 27118.00
767.4480, 27179.00
768.5950, 27221.00
769.7410, 27104.00
770.8870, 27233.00
772.0330, 27351.00
773.1780, 27318.00
774.3240, 27359.00
775.4690, 27236.00
776.6140, 27413.00
777.7590, 27458.00
778.9040, 27305.00
780.0490, 27452.00
781.1940, 27346.00
782.3380, 27384.00
783.4820, 27401.00
784.6260, 27370.00
785.7700, 27369.00
786.9140, 27561.00
788.0580, 27340.00
789.2010, 27397.00
790.3450, 27240.00
791.4880, 27338.00
792.6310, 27413.00
793.7730, 27493.00
794.9160, 27454.91
796.0590, 27501.00
797.2010, 27323.00
798.3430, 27349.00
799.4850, 27257.00
800.6270, 27449.00
801.7690, 27401.00
802.9100, 27472.00
804.0520, 27430.00
805.1930, 27473.00
806.3340, 27322.00
807.4750, 27409.00
808.6160, 27626.00
809.7560, 27472.00
810.8970, 27561.00
812.0370, 27646.00
813.1770, 27473.00
814.3170, 27406.00
815.4570, 27550.00
816.5960, 27469.00
817.7360, 27295.00
818.8750, 27476.00
820.0140, 27755.00
821.1530, 27513.00
822.2920, 27570.00
823.4310, 27505.00
824.5690, 27703.00
825.7070, 27552.00
826.8460, 27724.00
827.9840, 27465.00
829.1220, 27525.00
830.2590, 27507.00
831.3970, 27624.00
832.5340, 27317.00
833.6710, 27492.00
834.8080, 27606.00
835.9450, 27487.00
837.0820, 27694.00
838.2190, 27714.00
839.3550, 27596.00
840.4910, 27673.77
841.6270, 27620.00
842.7630, 27618.00
843.8990, 27697.00
845.0350, 27680.00
846.1700, 27512.00
847.3060, 27706.00
848.4410, 27542.00
849.5760, 27630.00
850.7100, 27669.00
851.8450, 27766.00
852.9800, 27610.00
854.1140, 27724.00
855.2480, 27672.00
856.3820, 27740.00
857.5160, 27638.00
858.6500, 27534.00
859.7830, 27685.76
860.9170, 27815.00
862.0500, 27981.00
863.1830, 27968.95
864.3160, 27791.00
865.4480, 27911.00
866.5810, 27828.00
867.7130, 27772.00
868.8460, 27869.00
869.9780, 27867.00
871.1100, 27755.00
872.2410, 28040.00
873.3730, 27781.00
874.5050, 27715.00
875.6360, 28112.00
876.7670, 27925.00
877.8980, 27774.00
879.0290, 27765.00
880.1590, 28010.00
881.2900, 28127.00
882.4200, 27929.00
883.5500, 27897.00
884.6800, 27960.00
885.8100, 27570.00
886.9400, 28007.00
888.0690, 28085.00
889.1990, 27976.00
890.3280, 27853.00
891.4570, 28117.00
892.5860, 28221.00
893.7140, 27980.00
894.8430, 27911.00
895.9710, 27954.00
897.1000, 28098.00
898.2280, 28067.00
899.3560, 28057.00
900.4830, 28046.00
901.6110, 27921.00
902.7380, 27965.00
903.8660, 28011.00
904.9930, 28095.00
906.1200, 28373.00
907.2460, 28291.00
908.3730, 28151.00
909.5000, 28299.00
910.6260, 28153.00
911.7520, 28423.00
912.8780, 28161.00
914.0040, 28204.00
915.1290, 28208.00
916.2550, 28160.00
917.3800, 28293.00
918.5050, 28395.00
919.6300, 28354.00
920.7550, 28334.00
921.8800, 28244.00
923.0040, 28414.00
924.1290, 28329.00
925.2530, 28571.00
926.3770, 28401.00
927.5010, 28415.00
928.6250, 28416.00
929.7480, 28411.00
930.8720, 28424.00
931.9950, 28454.44
933.1180, 28351.00
934.2410, 28531.00
935.3640, 28516.00
936.4860, 28544.00
937.6090, 28449.00
938.7310, 28457.00
939.8530, 28511.00
940.9750, 28547.00
942.0970, 28425.00
943.2180, 28797.00
944.3400, 28540.00
945.4610, 28654.00
946.5820, 28681.00
947.7030, 28572.00
948.8240, 28578.00
949.9450, 28866.00
951.0650, 28562.00
952.1860, 28677.00
953.3060, 28534.00
954.4260, 28752.00
955.5460, 28589.00
956.6650, 28594.00
957.7850, 28651.00
958.9040, 28580.00
960.0230, 28591.00
961.1420, 28752.00
962.2610, 28566.00
963.3800, 28727.00
964.4990, 28739.00
965.6170, 28749.00
966.7350, 28705.00
967.8530, 28735.27
968.9710, 28676.00
970.0890, 28771.00
971.2070, 28865.00
972.3240, 28914.00
973.4410, 28766.00
974.5580, 28621.00
975.6750, 28994.00
976.7920, 28815.00
977.9090, 29037.00
979.0250, 28945.00
980.1410, 28923.00
981.2580, 28879.00
982.3740, 28847.00
983.4890, 28972.00
984.6050, 29165.00
985.7200, 28982.00
986.8360, 29105.00
987.9510, 29056.00
989.0660, 29052.00
990.1810, 29142.00
991.2950, 29095.00
992.4100, 29106.00
993.5240, 29195.00
994.6390, 29029.00
995.7530, 29057.00
996.8660, 29172.00
997.9800, 28960.00
999.0940, 29195.00
1000.207, 29222.00
1001.320, 29213.00
1002.433, 29310.00
1003.546, 28993.00
1004.659, 29168.00
1005.772, 29043.00
1006.884, 29294.00
1007.996, 29352.00
1009.108, 29196.00
1010.220, 29156.00
1011.332, 29289.00
1012.444, 29088.00
1013.555, 29149.00
1014.666, 29275.00
1015.777, 29288.00
1016.888, 29338.00
1017.999, 29379.00
1019.110, 29339.00
1020.220, 29372.00
1021.331, 29348.69
1022.441, 29423.00
1023.551, 29316.00
1024.661, 29279.00
1025.770, 29282.00
1026.880, 29329.00
1027.989, 29485.00
1029.098, 29414.00
1030.207, 29523.00
1031.316, 29495.00
1032.425, 29502.78
1033.533, 29459.00
1034.642, 29516.00
1035.750, 29585.00
1036.858, 29607.00
1037.966, 29599.00
1039.073, 29588.00
1040.181, 29537.00
1041.288, 29522.54
1042.396, 29632.00
1043.503, 29513.00
1044.610, 29693.00
1045.716, 29817.00
1046.823, 29543.00
1047.929, 29624.00
1049.036, 29610.00
1050.142, 29787.00
1051.248, 29858.00
1052.353, 29487.00
1053.459, 29628.00
1054.564, 29523.00
1055.670, 29517.00
1056.775, 29361.00
1057.880, 29521.00
1058.985, 29733.00
1060.089, 29676.00
1061.194, 29698.00
1062.298, 29859.00
1063.402, 29793.00
1064.506, 29627.00
1065.610, 29634.00
1066.713, 29951.00
1067.817, 29827.00
1068.920, 29921.00
1070.023, 29920.36
1071.126, 29892.00
1072.229, 29903.00
1073.332, 29745.00
1074.435, 29910.00
1075.537, 29890.00
1076.639, 29614.00
1077.741, 29635.00
1078.843, 29746.00
1079.945, 29824.00
1081.046, 29671.00
1082.148, 29719.00
1083.249, 29658.00
1084.350, 29820.00
1085.451, 29747.00
1086.551, 29586.00
1087.652, 29884.00
1088.752, 29619.00
1089.853, 29569.00
1090.953, 29998.00
1092.053, 29835.00
1093.152, 29799.00
1094.252, 29791.00
1095.351, 29744.00
1096.451, 29661.00
1097.550, 29770.00
1098.649, 29594.00
1099.748, 29835.00
1100.846, 29851.00
1101.945, 29845.00
1103.043, 29872.63
1104.141, 29763.00
1105.239, 29730.00
1106.337, 29787.00
1107.434, 29651.00
1108.532, 29610.00
1109.629, 29789.00
1110.726, 29673.00
1111.823, 29753.00
1112.920, 29634.00
1114.017, 30103.00
1115.113, 29765.00
1116.210, 29490.00
1117.306, 29866.00
1118.402, 29516.00
1119.498, 29633.00
1120.593, 29742.00
1121.689, 29695.00
1122.784, 29704.00
1123.879, 29717.74
1124.974, 29537.00
1126.069, 29687.00
1127.164, 29678.00
1128.259, 29639.00
1129.353, 29474.00
1130.447, 29377.00
1131.541, 29340.00
1132.635, 29336.00
1133.729, 29241.00
1134.822, 29315.00
1135.916, 29224.08
1137.009, 29216.00
1138.102, 29320.00
1139.195, 29229.00
1140.288, 29426.00
1141.380, 29258.00
1142.473, 29342.00
1143.565, 29403.00
1144.657, 29229.00
1145.749, 29311.00
1146.841, 29372.00
1147.932, 29287.00
1149.024, 29578.00
1150.115, 29250.00
1151.206, 29255.00
1152.297, 29149.00
1153.388, 29323.00
1154.479, 29182.00
1155.569, 29248.00
1156.659, 29244.00
1157.750, 29324.00
1158.839, 29167.00
1159.929, 29131.00
1161.019, 29149.00
1162.108, 29193.00
1163.198, 29225.00
1164.287, 29259.62
1165.376, 29192.00
1166.465, 29290.00
1167.553, 29340.00
1168.642, 29259.94
1169.730, 29149.00
1170.818, 29162.00
1171.906, 29082.00
1172.994, 29281.00
1174.082, 29217.00
1175.170, 29231.00
1176.257, 29208.00
1177.344, 29012.00
1178.431, 29374.00
1179.518, 29305.00
1180.605, 29091.00
1181.691, 28896.00
1182.778, 29180.00
1183.864, 29035.00
1184.950, 29443.00
1186.036, 29033.00
1187.122, 29138.00
1188.207, 29079.00
1189.292, 29091.00
1190.378, 29170.00
1191.463, 29199.00
1192.548, 28972.00
1193.632, 29146.00
1194.717, 28924.00
1195.801, 29129.00
1196.886, 28970.00
1197.970, 29134.00
1199.054, 28970.00
1200.137, 29123.00
1201.221, 29075.00
1202.305, 29228.00
1203.388, 29052.00
1204.471, 28894.00
1205.554, 29054.00
1206.637, 29042.00
1207.719, 29129.00
1208.802, 29001.00
1209.884, 29157.00
1210.966, 29199.00
1212.048, 29132.00
1213.130, 28952.00
1214.212, 28998.33
1215.293, 28912.00
1216.374, 29000.00
1217.456, 28957.00
1218.536, 29034.00
1219.617, 29234.00
1220.698, 29068.00
1221.778, 29101.00
1222.859, 29196.00
1223.939, 29043.00
1225.019, 29182.00
1226.099, 29064.00
1227.178, 29148.00
1228.258, 29066.00
1229.337, 28907.00
1230.417, 29171.00
1231.496, 29106.00
1232.574, 29070.00
1233.653, 29130.00
1234.732, 29018.00
1235.810, 29292.00
1236.888, 28878.00
1237.966, 29144.00
1239.044, 28870.00
1240.122, 29195.00
1241.199, 29330.00
1242.277, 29306.00
1243.354, 29325.00
1244.431, 29149.00
1245.508, 29048.00
1246.585, 29226.00
1247.661, 28958.00
1248.738, 28968.00
1249.814, 29030.00
1250.890, 29105.00
1251.966, 29294.00
1253.042, 28939.00
1254.117, 29192.00
1255.193, 29120.00
1256.268, 29028.00
1257.343, 29130.00
1258.418, 29172.00
1259.493, 29312.00
1260.567, 29084.00
1261.642, 29004.00
1262.716, 29268.00
1263.790, 29137.00
1264.864, 29463.00
1265.938, 29151.00
1267.011, 28991.00
1268.085, 29024.00
1269.158, 28935.00
1270.231, 28975.00
1271.304, 29097.00
1272.377, 29117.00
1273.450, 29369.00
1274.522, 29216.00
1275.594, 29019.00
1276.666, 29202.00
1277.738, 29208.00
1278.810, 29247.00
1279.882, 29227.00
1280.953, 29274.39
1282.025, 29271.81
1283.096, 29301.00
1284.167, 29266.00
1285.238, 29169.00
1286.308, 29124.00
1287.379, 29290.00
1288.449, 29194.00
1289.519, 29357.00
1290.589, 29081.00
1291.659, 29134.00
1292.729, 29194.00
1293.798, 29447.00
1294.868, 29282.00
1295.937, 29236.00
1297.006, 29153.00
1298.075, 29051.83
1299.143, 29240.00
1300.212, 28947.00
1301.280, 29256.00
1302.348, 29364.00
1303.416, 29198.00
1304.484, 29203.00
1305.552, 29155.00
1306.620, 29362.00
1307.687, 29172.00
1308.754, 29268.00
1309.821, 29372.00
1310.888, 29139.00
1311.955, 29379.00
1313.021, 29348.00
1314.088, 29206.00
1315.154, 29422.00
1316.220, 29257.00
1317.286, 29210.00
1318.352, 29428.00
1319.417, 29361.00
1320.483, 29289.00
1321.548, 29167.00
1322.613, 29363.00
1323.678, 29434.00
1324.743, 29367.00
1325.807, 29403.00
1326.872, 29122.00
1327.936, 29308.00
1329.000, 29061.00
1330.064, 29122.00
1331.128, 29360.00
1332.191, 29025.00
1333.255, 29230.00
1334.318, 29361.00
1335.381, 29187.00
1336.444, 29226.00
1337.507, 29499.00
1338.569, 29110.00
1339.632, 29438.00
1340.694, 29174.00
1341.756, 29203.00
1342.818, 29129.00
1343.880, 29351.00
1344.941, 29274.00
1346.003, 29394.00
1347.064, 29345.00
1348.125, 29329.00
1349.186, 29272.00
1350.247, 29245.00
1351.308, 29188.00
1352.368, 29261.00
1353.428, 29376.00
1354.489, 29242.00
1355.549, 29275.29
1356.608, 29278.00
1357.668, 29183.00
1358.727, 29394.00
1359.787, 29409.00
1360.846, 29482.00
1361.905, 29323.00
1362.964, 29371.00
1364.022, 29089.00
1365.081, 29282.00
1366.139, 29465.00
1367.197, 29240.00
1368.255, 29316.00
1369.313, 29336.00
1370.371, 29307.00
1371.428, 29456.00
1372.486, 29421.00
1373.543, 29346.00
1374.600, 29430.00
1375.657, 29323.00
1376.713, 29404.00
1377.770, 29413.00
1378.826, 29424.00
1379.882, 29432.57
1380.938, 29353.00
1381.994, 29359.00
1383.050, 29418.00
1384.106, 29293.00
1385.161, 29476.00
1386.216, 29485.00
1387.271, 29505.00
1388.326, 29344.00
1389.381, 29229.00
1390.435, 29471.00
1391.490, 29368.00
1392.544, 29433.00
1393.598, 29558.00
1394.652, 29314.00
1395.705, 29474.00
1396.759, 29414.00
1397.812, 29409.00
1398.866, 29213.00
1399.919, 29276.00
1400.972, 29474.00
1402.024, 29637.00
1403.077, 29469.00
1404.129, 29572.00
1405.181, 29305.00
1406.233, 29605.00
1407.285, 29527.00
1408.337, 29622.00
1409.389, 29488.00
1410.440, 29378.00
1411.491, 29470.00
1412.542, 29498.00
1413.593, 29520.00
1414.644, 29505.00
1415.695, 29581.00
1416.745, 29414.00
1417.795, 29541.00
1418.845, 29519.00
1419.895, 29614.00
1420.945, 29581.00
1421.995, 29552.83
1423.044, 29579.00
1424.093, 29459.00
1425.142, 29344.00
1426.191, 29314.00
1427.240, 29430.00
1428.289, 29606.00
1429.337, 29461.00
1430.385, 29450.00
1431.433, 29617.00
1432.481, 29500.00
1433.529, 29641.00
1434.577, 29348.00
1435.624, 29465.00
1436.672, 29497.00
1437.719, 29383.00
1438.766, 29650.00
1439.812, 29512.00
1440.859, 29341.00
1441.905, 29377.00
1442.952, 29550.00
1443.998, 29648.00
1445.044, 29543.00
1446.090, 29558.00
1447.135, 29532.00
1448.181, 29552.00
1449.226, 29512.00
1450.271, 29574.37
1451.316, 29692.00
1452.361, 29672.00
1453.405, 29617.00
1454.450, 29604.43
1455.494, 29578.00
1456.538, 29601.00
1457.582, 29615.00
1458.626, 29614.00
1459.670, 29846.00
1460.713, 29510.00
1461.757, 29740.00
1462.800, 29508.00
1463.843, 29569.00
1464.886, 29659.00
1465.928, 29550.00
1466.971, 29700.00
1468.013, 29637.00
1469.055, 29680.00
1470.097, 29628.00
1471.139, 29693.00
1472.181, 29419.00
1473.222, 29449.00
1474.263, 29624.00
1475.305, 29473.00
1476.346, 29709.00
1477.386, 29543.00
1478.427, 29459.00
1479.468, 29600.00
1480.508, 29611.00
1481.548, 29596.00
1482.588, 29671.24
1483.628, 29558.00
1484.668, 29712.00
1485.707, 29727.00
1486.747, 29703.00
1487.786, 29646.00
1488.825, 29545.00
1489.864, 29717.00
1490.902, 29630.00
1491.941, 29395.00
1492.979, 29859.00
1494.017, 29659.00
1495.055, 29671.00
1496.093, 29817.00
1497.131, 29600.00
1498.168, 29679.00
1499.206, 29577.00
1500.243, 29615.00
1501.280, 29638.00
1502.317, 29723.00
1503.354, 29666.00
1504.390, 29895.00
1505.426, 29645.00
1506.463, 29858.00
1507.499, 29642.00
1508.535, 29768.00
1509.570, 29678.00
1510.606, 29621.00
1511.641, 29805.00
1512.676, 29853.00
1513.711, 29906.23
1514.746, 29687.00
1515.781, 29960.00
1516.816, 29892.00
1517.850, 29737.00
1518.884, 29911.00
1519.918, 29678.00
1520.952, 29756.00
1521.986, 29673.00
1523.019, 29738.00
1524.053, 29860.00
1525.086, 29894.00
1526.119, 29817.00
1527.152, 29666.00
1528.185, 29758.00
1529.217, 29789.00
1530.250, 29779.00
1531.282, 29883.00
1532.314, 29798.00
1533.346, 29857.84
1534.377, 29864.00
1535.409, 29847.00
1536.440, 29943.00
1537.472, 29825.00
1538.503, 29910.00
1539.534, 29636.00
1540.564, 29787.00
1541.595, 29845.00
1542.625, 30045.00
1543.656, 29719.00
##END=



