##NAMES=Edenite
##RRUFFID=R050415
##IDEAL CHEMISTRY=NaCa_2_Mg_5_(Si_7_Al)O_22_(OH)_2_
##LOCALITY=Mogok, Burma
##OWNER=RRUFF
##SOURCE=Marcus Origlieri
##DESCRIPTION=Transparent pale green water worn fragment
##STATUS=The identification of this mineral has been confirmed by X-ray diffraction and chemical analysis
##URL=rruff.info/R050415
##MEASURED CHEMISTRY=(Na_0.83_K_0.17_)(Ca_1.76_Na_0.24_)_&#931;=2_(Mg_4.54_Al_0.40_Fe^3+^_0.06_)_&#931;=5_(Si_6.74_Al_1.26_)O_22_((OH)_0.52_F_0.48_)_2_
##PIN_ID=L01772
##ORIENTATION=Laser parallel to (-1 0 -1). Fiducial mark perpendicular to laser is parallel to b [0 1 0]
108.2800, 13525.69
109.5120, 14604.00
110.7440, 13976.00
111.9760, 14050.00
113.2080, 14251.00
114.4400, 14621.00
115.6710, 15084.00
116.9030, 15533.00
118.1340, 15666.00
119.3650, 16028.00
120.5960, 16350.00
121.8270, 16312.00
123.0580, 16330.00
124.2880, 16246.00
125.5190, 15732.00
126.7490, 15370.00
127.9790, 15144.00
129.2090, 15144.00
130.4390, 15166.00
131.6680, 15098.00
132.8980, 15244.00
134.1270, 15132.00
135.3560, 15350.00
136.5850, 15394.00
137.8140, 15618.00
139.0430, 15961.00
140.2710, 16470.00
141.5000, 16508.00
142.7280, 16771.00
143.9560, 16649.00
145.1840, 16532.00
146.4120, 16324.00
147.6390, 15952.00
148.8670, 16026.00
150.0940, 15944.00
151.3210, 15914.00
152.5490, 16006.00
153.7750, 16105.00
155.0020, 16179.00
156.2290, 16468.00
157.4550, 16563.00
158.6810, 16988.00
159.9080, 17114.00
161.1340, 17626.00
162.3590, 18134.00
163.5850, 18645.00
164.8110, 19077.00
166.0360, 19231.00
167.2610, 19330.00
168.4860, 19249.00
169.7110, 18743.00
170.9360, 18777.00
172.1610, 18449.00
173.3850, 18257.00
174.6100, 18144.00
175.8340, 18233.00
177.0580, 18230.00
178.2820, 18315.00
179.5050, 18449.00
180.7290, 18439.00
181.9520, 18399.00
183.1760, 18644.00
184.3990, 18574.00
185.6220, 18444.00
186.8450, 18511.00
188.0670, 18224.00
189.2900, 18257.00
190.5120, 18173.00
191.7340, 17963.00
192.9560, 17876.00
194.1780, 17901.00
195.4000, 17807.00
196.6220, 17786.00
197.8430, 17855.00
199.0640, 17811.00
200.2860, 17777.00
201.5070, 17981.00
202.7270, 18080.00
203.9480, 18369.00
205.1690, 18423.00
206.3890, 18552.00
207.6090, 18634.00
208.8290, 18894.00
210.0490, 19233.00
211.2690, 19483.00
212.4890, 20081.00
213.7080, 20351.00
214.9280, 20674.00
216.1470, 21271.00
217.3660, 21882.00
218.5850, 22390.00
219.8030, 22916.00
221.0220, 23533.00
222.2400, 24279.00
223.4590, 24920.00
224.6770, 25901.00
225.8950, 26102.00
227.1120, 26371.00
228.3300, 26668.00
229.5480, 26494.00
230.7650, 26652.00
231.9820, 26815.00
233.1990, 26871.00
234.4160, 27155.00
235.6330, 27238.00
236.8490, 27404.00
238.0660, 27492.00
239.2820, 26914.00
240.4980, 26839.00
241.7140, 26239.00
242.9300, 25702.00
244.1460, 25339.00
245.3610, 24850.00
246.5770, 24390.00
247.7920, 24185.00
249.0070, 23967.00
250.2220, 23611.00
251.4370, 23023.00
252.6510, 22478.00
253.8660, 22211.00
255.0800, 21688.00
256.2940, 21489.00
257.5080, 21108.00
258.7220, 20773.72
259.9360, 20618.00
261.1490, 20176.00
262.3630, 20090.00
263.5760, 19861.00
264.7890, 19460.00
266.0020, 19383.00
267.2150, 19162.00
268.4270, 18914.00
269.6400, 18966.00
270.8520, 18980.00
272.0640, 18818.00
273.2760, 18844.00
274.4880, 18883.00
275.7000, 18753.00
276.9120, 18834.00
278.1230, 18869.00
279.3340, 18863.00
280.5450, 18928.00
281.7560, 19024.00
282.9670, 18906.00
284.1780, 19234.00
285.3880, 19197.00
286.5980, 19163.00
287.8090, 19145.00
289.0190, 19340.00
290.2290, 19292.00
291.4380, 19541.00
292.6480, 19740.00
293.8570, 19482.00
295.0670, 19561.00
296.2760, 19903.00
297.4850, 19911.00
298.6930, 20066.00
299.9020, 19889.00
301.1110, 19960.00
302.3190, 19835.00
303.5270, 19894.00
304.7350, 20029.00
305.9430, 19987.60
307.1510, 20149.00
308.3580, 20122.00
309.5660, 20364.00
310.7730, 20585.00
311.9800, 20874.00
313.1870, 20974.00
314.3940, 21283.00
315.6010, 21161.00
316.8070, 21559.00
318.0130, 21436.00
319.2200, 21516.00
320.4260, 21664.00
321.6310, 21747.00
322.8370, 21633.00
324.0430, 21630.00
325.2480, 21576.00
326.4540, 21526.00
327.6590, 21475.00
328.8640, 21352.00
330.0680, 21269.57
331.2730, 21338.00
332.4780, 21076.00
333.6820, 21220.00
334.8860, 21216.00
336.0900, 21198.00
337.2940, 21295.00
338.4980, 21078.00
339.7010, 21193.00
340.9050, 21194.00
342.1080, 21098.00
343.3110, 21306.00
344.5140, 21447.00
345.7170, 21235.00
346.9200, 21520.00
348.1220, 21539.00
349.3240, 21572.00
350.5270, 21812.00
351.7290, 21637.00
352.9310, 21927.00
354.1320, 21961.00
355.3340, 21961.00
356.5350, 22000.00
357.7370, 22096.00
358.9380, 22350.00
360.1390, 22360.00
361.3400, 22624.00
362.5400, 22737.00
363.7410, 23008.00
364.9410, 22863.00
366.1410, 23195.00
367.3410, 23154.00
368.5410, 23038.00
369.7410, 23410.00
370.9400, 23567.00
372.1400, 23604.00
373.3390, 23355.00
374.5380, 23449.00
375.7370, 23460.00
376.9360, 23531.00
378.1350, 23587.59
379.3330, 23492.00
380.5310, 23618.00
381.7300, 23774.00
382.9280, 23619.00
384.1260, 23520.00
385.3230, 23733.00
386.5210, 23933.00
387.7180, 24015.00
388.9160, 24147.00
390.1130, 24315.00
391.3100, 24397.00
392.5060, 24341.00
393.7030, 24434.00
394.9000, 24339.00
396.0960, 24158.00
397.2920, 24057.00
398.4880, 23961.00
399.6840, 23646.00
400.8800, 23109.00
402.0750, 23076.00
403.2710, 22884.00
404.4660, 22818.00
405.6610, 22751.50
406.8560, 22564.00
408.0510, 22650.00
409.2450, 22558.00
410.4400, 22531.00
411.6340, 22537.02
412.8280, 22436.00
414.0220, 22476.00
415.2160, 22614.00
416.4100, 22538.00
417.6030, 22791.00
418.7970, 22769.00
419.9900, 22796.00
421.1830, 22796.00
422.3760, 22978.00
423.5690, 22951.20
424.7610, 22989.00
425.9540, 23025.00
427.1460, 23014.00
428.3380, 23085.00
429.5300, 22785.00
430.7220, 22776.00
431.9140, 22666.21
433.1050, 22759.00
434.2970, 22457.00
435.4880, 22534.00
436.6790, 22432.00
437.8700, 22370.00
439.0610, 22163.00
440.2510, 22101.27
441.4420, 21801.00
442.6320, 21938.00
443.8220, 21781.00
445.0120, 21782.00
446.2020, 21803.00
447.3910, 21759.00
448.5810, 21720.00
449.7700, 21613.00
450.9600, 21536.00
452.1490, 21487.87
453.3370, 21720.00
454.5260, 21451.00
455.7150, 21596.00
456.9030, 21739.00
458.0910, 21705.00
459.2800, 21818.00
460.4670, 21742.00
461.6550, 21883.00
462.8430, 21808.00
464.0300, 21686.00
465.2180, 21863.00
466.4050, 21590.00
467.5920, 22084.00
468.7790, 21822.00
469.9650, 21975.00
471.1520, 21805.00
472.3380, 22020.00
473.5250, 21895.00
474.7110, 21855.00
475.8970, 22096.00
477.0820, 21991.00
478.2680, 21923.00
479.4540, 22072.00
480.6390, 22166.00
481.8240, 22055.00
483.0090, 22110.00
484.1940, 22330.00
485.3780, 22226.00
486.5630, 22336.00
487.7470, 22536.00
488.9320, 22355.00
490.1160, 22415.00
491.3000, 22395.00
492.4830, 22446.00
493.6670, 22476.00
494.8500, 22492.00
496.0340, 22388.00
497.2170, 22596.00
498.4000, 22832.00
499.5820, 22789.00
500.7650, 22844.00
501.9480, 23095.00
503.1300, 23339.00
504.3120, 23559.00
505.4940, 23555.00
506.6760, 23819.00
507.8580, 23973.00
509.0390, 23990.00
510.2210, 24308.00
511.4020, 24479.00
512.5830, 24756.00
513.7640, 24688.00
514.9450, 24863.00
516.1250, 25059.00
517.3060, 25267.00
518.4860, 25213.00
519.6660, 25180.00
520.8460, 25015.00
522.0260, 24996.00
523.2060, 24873.00
524.3850, 24814.61
525.5650, 24875.00
526.7440, 24778.00
527.9230, 24594.00
529.1020, 24714.00
530.2810, 24681.00
531.4590, 24731.00
532.6380, 24393.00
533.8160, 24535.00
534.9940, 24340.00
536.1720, 24215.00
537.3500, 24205.00
538.5270, 24067.00
539.7050, 24018.00
540.8820, 24144.00
542.0590, 23913.00
543.2360, 23970.00
544.4130, 23872.00
545.5900, 23957.00
546.7660, 23975.00
547.9430, 23870.00
549.1190, 23844.00
550.2950, 23712.00
551.4710, 23647.00
552.6470, 23704.00
553.8220, 23849.00
554.9980, 23746.00
556.1730, 23640.00
557.3480, 23503.00
558.5230, 23652.00
559.6980, 23724.00
560.8730, 23911.00
562.0470, 23727.00
563.2220, 23863.00
564.3960, 23894.00
565.5700, 23802.00
566.7440, 23980.00
567.9170, 24063.00
569.0910, 23884.00
570.2640, 24046.00
571.4380, 23897.00
572.6110, 23996.00
573.7840, 23886.00
574.9570, 24130.00
576.1290, 24050.00
577.3020, 24133.00
578.4740, 24081.00
579.6460, 24185.00
580.8180, 24257.00
581.9900, 24356.00
583.1620, 24367.00
584.3330, 24325.00
585.5040, 24333.00
586.6760, 24394.00
587.8470, 24512.00
589.0180, 24558.00
590.1880, 24542.00
591.3590, 24443.00
592.5290, 24390.00
593.7000, 24693.00
594.8700, 24597.00
596.0400, 24502.00
597.2090, 24625.00
598.3790, 24492.00
599.5490, 24641.00
600.7180, 24667.59
601.8870, 24801.00
603.0560, 24812.00
604.2250, 24895.00
605.3940, 24996.00
606.5620, 25070.00
607.7300, 25045.00
608.8990, 25193.00
610.0670, 25329.00
611.2350, 25424.00
612.4020, 25262.00
613.5700, 25467.00
614.7370, 25655.00
615.9050, 25496.00
617.0720, 25787.00
618.2390, 25748.00
619.4060, 25969.00
620.5720, 26081.00
621.7390, 25882.00
622.9050, 26077.00
624.0710, 26249.00
625.2370, 26428.00
626.4030, 26563.54
627.5690, 26709.00
628.7340, 26765.00
629.9000, 26973.00
631.0650, 26973.00
632.2300, 27214.00
633.3950, 27394.00
634.5600, 27593.00
635.7240, 28127.00
636.8890, 28140.00
638.0530, 28543.00
639.2170, 28558.00
640.3810, 28931.00
641.5450, 29142.00
642.7080, 29283.00
643.8720, 29506.00
645.0350, 30051.00
646.1980, 30251.00
647.3610, 30871.00
648.5240, 31096.00
649.6870, 31466.00
650.8490, 31871.00
652.0120, 32343.00
653.1740, 32843.00
654.3360, 33325.02
655.4980, 33861.87
656.6600, 34384.00
657.8210, 35051.00
658.9830, 35651.00
660.1440, 36466.00
661.3050, 37520.71
662.4660, 38596.00
663.6270, 39959.00
664.7870, 41381.00
665.9480, 42834.00
667.1080, 44249.00
668.2680, 45817.00
669.4280, 47537.00
670.5880, 48872.00
671.7480, 49992.00
672.9070, 50890.00
674.0670, 51252.00
675.2260, 51101.00
676.3850, 50599.00
677.5440, 49509.00
678.7030, 48342.00
679.8610, 46528.00
681.0200, 44156.00
682.1780, 42644.00
683.3360, 41118.00
684.4940, 39187.00
685.6520, 37713.00
686.8090, 37094.00
687.9670, 36567.00
689.1240, 35109.00
690.2810, 33605.00
691.4380, 32277.00
692.5950, 31755.00
693.7520, 31255.00
694.9080, 30824.00
696.0650, 30426.65
697.2210, 30141.00
698.3770, 29760.00
699.5330, 29549.00
700.6880, 29305.25
701.8440, 29187.00
702.9990, 28801.00
704.1550, 28699.00
705.3100, 28362.00
706.4650, 28265.00
707.6190, 28343.00
708.7740, 28256.00
709.9290, 28366.00
711.0830, 28107.00
712.2370, 28088.00
713.3910, 28028.00
714.5450, 28333.00
715.6980, 28240.00
716.8520, 28257.00
718.0050, 28162.00
719.1580, 28116.92
720.3110, 28123.00
721.4640, 28025.00
722.6170, 28082.00
723.7700, 28096.00
724.9220, 28038.00
726.0740, 27997.00
727.2260, 28010.00
728.3780, 28007.42
729.5300, 28201.00
730.6810, 28109.00
731.8330, 28035.00
732.9840, 28175.00
734.1350, 28095.14
735.2860, 28279.00
736.4370, 28177.00
737.5880, 28140.00
738.7380, 28333.00
739.8880, 28412.00
741.0390, 28212.00
742.1890, 28289.00
743.3380, 28295.00
744.4880, 28284.00
745.6380, 28186.00
746.7870, 28190.00
747.9360, 28234.00
749.0850, 28341.00
750.2340, 28340.00
751.3830, 28408.86
752.5310, 28427.09
753.6800, 28478.00
754.8280, 28422.00
755.9760, 28403.00
757.1240, 28342.00
758.2720, 28459.00
759.4190, 28379.00
760.5670, 28384.00
761.7140, 28298.00
762.8610, 28550.00
764.0080, 28456.00
765.1550, 28430.00
766.3020, 28592.00
767.4480, 28495.00
768.5950, 28634.00
769.7410, 28673.00
770.8870, 28381.00
772.0330, 28680.00
773.1780, 29013.00
774.3240, 28838.00
775.4690, 28846.00
776.6140, 28730.00
777.7590, 28922.00
778.9040, 29059.00
780.0490, 28833.00
781.1940, 29007.00
782.3380, 28999.00
783.4820, 29122.00
784.6260, 29002.00
785.7700, 29071.00
786.9140, 29006.00
788.0580, 29134.00
789.2010, 29127.00
790.3450, 29421.00
791.4880, 29457.00
792.6310, 29288.00
793.7730, 29158.00
794.9160, 29093.00
796.0590, 29237.00
797.2010, 29548.00
798.3430, 29422.00
799.4850, 29474.00
800.6270, 29626.00
801.7690, 29633.00
802.9100, 29603.00
804.0520, 29434.00
805.1930, 29627.00
806.3340, 29579.00
807.4750, 29544.00
808.6160, 29619.00
809.7560, 29610.00
810.8970, 29875.00
812.0370, 29824.00
813.1770, 29799.00
814.3170, 29924.00
815.4570, 29861.00
816.5960, 29797.00
817.7360, 29936.00
818.8750, 29962.00
820.0140, 29907.00
821.1530, 30171.00
822.2920, 30268.00
823.4310, 30215.00
824.5690, 30124.00
825.7070, 30143.00
826.8460, 30047.00
827.9840, 30310.00
829.1220, 30352.00
830.2590, 30300.00
831.3970, 30198.00
832.5340, 30267.00
833.6710, 30223.00
834.8080, 30620.00
835.9450, 30508.00
837.0820, 30506.00
838.2190, 30660.00
839.3550, 30495.00
840.4910, 30664.00
841.6270, 30457.00
842.7630, 30791.00
843.8990, 30704.00
845.0350, 30868.00
846.1700, 30781.00
847.3060, 31052.00
848.4410, 30952.00
849.5760, 30963.00
850.7100, 30947.00
851.8450, 31048.00
852.9800, 31054.00
854.1140, 31210.00
855.2480, 31100.00
856.3820, 31182.00
857.5160, 31207.00
858.6500, 31171.00
859.7830, 31133.00
860.9170, 31382.00
862.0500, 31352.00
863.1830, 31349.00
864.3160, 31247.00
865.4480, 31340.32
866.5810, 31258.00
867.7130, 31498.00
868.8460, 31648.00
869.9780, 31737.00
871.1100, 31814.44
872.2410, 31731.00
873.3730, 31860.00
874.5050, 31898.00
875.6360, 31953.00
876.7670, 32039.00
877.8980, 31985.00
879.0290, 31852.00
880.1590, 32299.00
881.2900, 32027.00
882.4200, 32362.00
883.5500, 32601.00
884.6800, 32381.00
885.8100, 32498.00
886.9400, 32677.00
888.0690, 32654.00
889.1990, 32814.00
890.3280, 32865.00
891.4570, 33026.00
892.5860, 33073.00
893.7140, 33481.00
894.8430, 33296.00
895.9710, 33412.00
897.1000, 33502.00
898.2280, 33239.00
899.3560, 33534.00
900.4830, 33569.00
901.6110, 33656.00
902.7380, 34030.00
903.8660, 34099.00
904.9930, 34049.00
906.1200, 34378.00
907.2460, 34383.00
908.3730, 34506.79
909.5000, 34754.00
910.6260, 34750.00
911.7520, 34820.00
912.8780, 35013.00
914.0040, 35289.00
915.1290, 35266.00
916.2550, 35489.00
917.3800, 35550.00
918.5050, 35709.00
919.6300, 35727.00
920.7550, 36018.00
921.8800, 35907.00
923.0040, 36010.00
924.1290, 35682.00
925.2530, 35833.00
926.3770, 35828.00
927.5010, 35670.00
928.6250, 35793.00
929.7480, 35813.00
930.8720, 35798.00
931.9950, 35873.00
933.1180, 35919.00
934.2410, 35739.00
935.3640, 35728.00
936.4860, 35837.00
937.6090, 35842.00
938.7310, 35618.00
939.8530, 35752.00
940.9750, 35647.00
942.0970, 35898.00
943.2180, 35890.00
944.3400, 35999.00
945.4610, 35778.00
946.5820, 35753.00
947.7030, 35901.00
948.8240, 35892.00
949.9450, 35938.00
951.0650, 36023.00
952.1860, 36027.00
953.3060, 36059.00
954.4260, 35978.00
955.5460, 36070.00
956.6650, 36110.00
957.7850, 36014.00
958.9040, 36130.00
960.0230, 35916.00
961.1420, 36137.00
962.2610, 36108.00
963.3800, 36118.00
964.4990, 36006.00
965.6170, 36046.00
966.7350, 36019.00
967.8530, 36057.00
968.9710, 36210.00
970.0890, 36326.00
971.2070, 36484.00
972.3240, 36332.00
973.4410, 36397.00
974.5580, 36443.00
975.6750, 36544.00
976.7920, 36574.00
977.9090, 36753.00
979.0250, 36748.00
980.1410, 36614.00
981.2580, 36972.00
982.3740, 36920.00
983.4890, 37084.00
984.6050, 37285.00
985.7200, 37068.00
986.8360, 37450.00
987.9510, 37600.00
989.0660, 37628.70
990.1810, 37880.21
991.2950, 37836.00
992.4100, 38068.00
993.5240, 38208.00
994.6390, 38095.00
995.7530, 38743.00
996.8660, 38876.00
997.9800, 38822.00
999.0940, 38919.00
1000.207, 39415.00
1001.320, 39439.00
1002.433, 39864.00
1003.546, 39933.00
1004.659, 40237.00
1005.772, 40196.00
1006.884, 40522.00
1007.996, 40513.00
1009.108, 40479.00
1010.220, 40804.00
1011.332, 40892.00
1012.444, 40848.00
1013.555, 41001.00
1014.666, 41307.00
1015.777, 41201.00
1016.888, 41263.00
1017.999, 41676.00
1019.110, 41342.00
1020.220, 41279.00
1021.331, 41432.00
1022.441, 41446.00
1023.551, 41561.00
1024.661, 41446.00
1025.770, 41233.00
1026.880, 41599.00
1027.989, 41728.00
1029.098, 41560.00
1030.207, 42019.00
1031.316, 42039.00
1032.425, 42179.00
1033.533, 42143.00
1034.642, 42379.00
1035.750, 42350.00
1036.858, 42402.00
1037.966, 42608.00
1039.073, 42552.00
1040.181, 42654.00
1041.288, 42715.00
1042.396, 42676.00
1043.503, 42889.00
1044.610, 42905.00
1045.716, 42945.83
1046.823, 42885.00
1047.929, 42806.00
1049.036, 43008.00
1050.142, 42524.00
1051.248, 42645.00
1052.353, 42365.00
1053.459, 42539.00
1054.564, 42534.00
1055.670, 42676.00
1056.775, 42405.00
1057.880, 42464.00
1058.985, 42638.00
1060.089, 42734.00
1061.194, 42792.26
1062.298, 42677.00
1063.402, 42827.00
1064.506, 42781.00
1065.610, 42637.00
1066.713, 42358.00
1067.817, 42701.00
1068.920, 42345.00
1070.023, 42530.00
1071.126, 42090.00
1072.229, 42115.00
1073.332, 41930.00
1074.435, 41467.00
1075.537, 41357.00
1076.639, 41266.00
1077.741, 40792.00
1078.843, 40758.00
1079.945, 40787.00
1081.046, 40335.00
1082.148, 40577.00
1083.249, 40248.00
1084.350, 40030.00
1085.451, 40074.00
1086.551, 39752.00
1087.652, 39818.00
1088.752, 39663.00
1089.853, 39568.00
1090.953, 39561.00
1092.053, 39605.00
1093.152, 39648.00
1094.252, 39452.00
1095.351, 39248.00
1096.451, 39328.00
1097.550, 39199.00
1098.649, 39380.00
1099.748, 39418.00
1100.846, 39417.00
1101.945, 39321.00
1103.043, 39385.56
1104.141, 39527.00
1105.239, 39429.00
1106.337, 39432.00
1107.434, 39439.00
1108.532, 39398.00
1109.629, 39499.00
1110.726, 39599.00
1111.823, 39431.00
1112.920, 39590.00
1114.017, 39532.00
1115.113, 39792.00
1116.210, 39823.52
1117.306, 39823.00
1118.402, 39982.00
1119.498, 40155.00
1120.593, 40203.00
1121.689, 40350.00
1122.784, 40252.00
1123.879, 40309.14
1124.974, 40401.00
1126.069, 40248.00
1127.164, 40066.00
1128.259, 39941.00
1129.353, 39825.00
1130.447, 40108.00
1131.541, 39867.00
1132.635, 39952.00
1133.729, 39942.00
1134.822, 39902.00
1135.916, 39950.00
1137.009, 39949.00
1138.102, 40030.00
1139.195, 40028.00
1140.288, 40053.00
1141.380, 40173.00
1142.473, 40252.00
1143.565, 40165.00
1144.657, 40255.00
1145.749, 40453.00
1146.841, 40150.00
1147.932, 40453.00
1149.024, 40503.00
1150.115, 40522.00
1151.206, 40532.00
1152.297, 40561.05
1153.388, 40568.00
1154.479, 40552.00
1155.569, 40644.00
1156.659, 40555.00
1157.750, 40838.00
1158.839, 40690.00
1159.929, 40612.00
1161.019, 40928.00
1162.108, 40942.00
1163.198, 40413.00
1164.287, 40700.00
1165.376, 40816.00
1166.465, 41040.00
1167.553, 41158.00
1168.642, 41124.00
1169.730, 40941.00
1170.818, 40883.00
1171.906, 41172.00
1172.994, 40868.00
1174.082, 41200.00
1175.170, 41050.00
1176.257, 41178.00
1177.344, 41539.00
1178.431, 41630.00
1179.518, 41589.00
1180.605, 41557.00
1181.691, 41482.00
1182.778, 41341.00
1183.864, 41486.00
1184.950, 41580.00
1186.036, 41357.00
1187.122, 41597.00
1188.207, 41362.00
1189.292, 41526.00
1190.378, 41788.00
1191.463, 41759.00
1192.548, 42012.00
1193.632, 42022.00
1194.717, 41889.00
1195.801, 41958.00
1196.886, 42068.00
1197.970, 42110.00
1199.054, 42296.00
1200.137, 42328.00
1201.221, 42215.00
1202.305, 42493.00
1203.388, 42474.00
1204.471, 42339.00
1205.554, 42368.00
1206.637, 42382.00
1207.719, 42765.00
1208.802, 42583.00
1209.884, 42836.00
1210.966, 42698.00
1212.048, 42885.00
1213.130, 42865.00
1214.212, 43220.00
1215.293, 42790.00
1216.374, 43033.00
1217.456, 43049.00
1218.536, 42811.00
1219.617, 43000.00
1220.698, 42851.00
1221.778, 43141.00
1222.859, 43236.00
1223.939, 43173.00
1225.019, 43312.31
1226.099, 43571.00
1227.178, 43391.00
1228.258, 43378.00
1229.337, 43491.00
1230.417, 43293.00
1231.496, 43559.00
1232.574, 43585.00
1233.653, 43516.17
1234.732, 43547.00
1235.810, 43480.00
1236.888, 43759.00
1237.966, 43885.00
1239.044, 43945.00
1240.122, 43794.00
1241.199, 44294.00
1242.277, 44002.00
1243.354, 44180.00
1244.431, 44096.00
1245.508, 44121.00
1246.585, 44282.00
1247.661, 44336.00
1248.738, 44225.00
1249.814, 44473.00
1250.890, 44338.00
1251.966, 44431.00
1253.042, 44696.00
1254.117, 44437.00
1255.193, 44602.00
1256.268, 44791.00
1257.343, 44608.00
1258.418, 44746.00
1259.493, 44799.00
1260.567, 44841.00
1261.642, 44995.00
1262.716, 44858.00
1263.790, 44827.00
1264.864, 45013.00
1265.938, 44967.00
1267.011, 45020.31
1268.085, 45232.00
1269.158, 45117.00
1270.231, 45178.00
1271.304, 45338.00
1272.377, 45356.00
1273.450, 45357.00
1274.522, 45483.00
1275.594, 45567.00
1276.666, 45602.00
1277.738, 45590.00
1278.810, 45596.00
1279.882, 45761.00
1280.953, 45941.00
1282.025, 45950.00
1283.096, 45998.33
1284.167, 46018.00
1285.238, 46002.00
1286.308, 46016.00
1287.379, 46143.00
1288.449, 46140.00
1289.519, 45953.00
1290.589, 46067.00
1291.659, 46157.00
1292.729, 46092.00
1293.798, 46215.00
1294.868, 46464.00
1295.937, 46611.00
1297.006, 46387.00
1298.075, 46683.00
1299.143, 46436.00
1300.212, 46721.00
1301.280, 46703.00
1302.348, 46606.00
1303.416, 46684.00
1304.484, 46896.00
1305.552, 46873.00
1306.620, 46724.00
1307.687, 46779.00
1308.754, 47054.00
1309.821, 46982.00
1310.888, 47319.00
1311.955, 47039.00
1313.021, 47168.00
1314.088, 47255.00
1315.154, 47393.00
1316.220, 47513.00
1317.286, 47726.00
1318.352, 47450.00
1319.417, 47483.00
1320.483, 47775.00
1321.548, 48015.00
1322.613, 48000.00
1323.678, 47993.00
1324.743, 48040.74
1325.807, 47951.00
1326.872, 48038.00
1327.936, 48029.00
1329.000, 48136.00
1330.064, 48287.00
1331.128, 48287.00
1332.191, 48319.81
1333.255, 48370.00
1334.318, 48257.00
1335.381, 48328.00
1336.444, 48270.00
1337.507, 48586.00
1338.569, 48577.00
1339.632, 48593.00
1340.694, 48551.00
1341.756, 48691.00
1342.818, 48653.00
1343.880, 48908.00
1344.941, 48666.00
1346.003, 49050.00
1347.064, 49035.00
1348.125, 49083.00
1349.186, 48814.00
1350.247, 48982.00
1351.308, 48890.00
1352.368, 49134.00
1353.428, 49353.00
1354.489, 49110.00
1355.549, 49357.00
1356.608, 49575.00
1357.668, 49629.00
1358.727, 49785.00
1359.787, 49608.00
1360.846, 49617.00
1361.905, 49607.00
1362.964, 49745.00
1364.022, 49715.11
1365.081, 49906.00
1366.139, 49795.00
1367.197, 49891.00
1368.255, 50040.00
1369.313, 50066.00
1370.371, 50044.00
1371.428, 50206.00
1372.486, 50582.00
1373.543, 50127.00
1374.600, 50246.00
1375.657, 50323.00
1376.713, 50721.00
1377.770, 50501.00
1378.826, 50908.00
1379.882, 50555.00
1380.938, 50700.00
1381.994, 50767.00
1383.050, 51020.00
1384.106, 50721.00
1385.161, 51195.00
1386.216, 50982.00
1387.271, 50947.00
1388.326, 51162.00
1389.381, 51081.00
1390.435, 51218.55
1391.490, 51276.00
1392.544, 51346.00
1393.598, 51476.00
1394.652, 51380.00
1395.705, 51155.00
1396.759, 51328.00
1397.812, 51439.00
1398.866, 51636.00
1399.919, 51608.00
1400.972, 51669.00
1402.024, 51659.00
1403.077, 51721.27
1404.129, 51808.17
1405.181, 51850.00
1406.233, 52010.00
1407.285, 52076.00
1408.337, 52168.00
1409.389, 52145.00
1410.440, 52234.00
1411.491, 52579.00
1412.542, 52398.00
1413.593, 52233.00
1414.644, 52602.00
1415.695, 52511.00
1416.745, 52463.00
1417.795, 52626.00
1418.845, 52743.00
1419.895, 52659.00
1420.945, 52585.00
1421.995, 52727.38
1423.044, 53011.00
1424.093, 52988.00
1425.142, 53026.00
1426.191, 53247.00
1427.240, 53088.00
1428.289, 53126.00
1429.337, 53285.00
1430.385, 53377.00
1431.433, 53525.00
1432.481, 53399.00
1433.529, 53714.00
1434.577, 53591.00
1435.624, 53712.91
1436.672, 53852.44
1437.719, 53851.00
1438.766, 54078.00
1439.812, 54102.00
1440.859, 54187.00
1441.905, 54073.00
1442.952, 54152.72
1443.998, 54197.30
1445.044, 54277.00
1446.090, 54399.00
1447.135, 54625.00
1448.181, 54871.00
1449.226, 54664.00
1450.271, 54625.00
1451.316, 55033.00
1452.361, 54839.00
1453.405, 54800.00
1454.450, 54814.00
1455.494, 55192.00
1456.538, 54918.00
1457.582, 55340.00
1458.626, 55244.00
1459.670, 55376.00
1460.713, 55215.00
1461.757, 55699.00
1462.800, 55771.00
1463.843, 55551.00
1464.886, 55393.00
1465.928, 55912.00
1466.971, 55729.00
1468.013, 55673.00
1469.055, 56095.00
1470.097, 55907.00
1471.139, 55931.00
1472.181, 55937.00
1473.222, 55952.00
1474.263, 55873.00
1475.305, 56183.00
1476.346, 56224.00
1477.386, 56138.00
1478.427, 56565.00
1479.468, 56431.00
1480.508, 56446.00
1481.548, 56686.00
1482.588, 56533.00
1483.628, 56763.00
1484.668, 56497.00
1485.707, 56621.00
1486.747, 56932.00
1487.786, 56914.00
1488.825, 57048.00
1489.864, 57043.00
1490.902, 57093.00
1491.941, 57296.00
1492.979, 57562.00
1494.017, 57059.00
1495.055, 57438.00
1496.093, 57606.00
1497.131, 57411.00
1498.168, 57646.00
1499.206, 57806.00
1500.243, 57838.00
1501.280, 57663.00
1502.317, 57903.00
1503.354, 57967.00
1504.390, 58037.00
1505.426, 58331.00
1506.463, 57989.00
1507.499, 58018.00
1508.535, 58414.00
1509.570, 58377.00
1510.606, 58541.00
1511.641, 58717.00
1512.676, 58717.00
1513.711, 58428.00
1514.746, 58901.00
1515.781, 58902.00
1516.816, 59217.00
1517.850, 58812.00
1518.884, 59034.00
1519.918, 58926.00
1520.952, 58991.00
1521.986, 59376.00
1523.019, 59099.00
1524.053, 59183.00
1525.086, 59704.00
1526.119, 59701.00
1527.152, 59572.00
1528.185, 59883.00
1529.217, 59828.00
1530.250, 59711.00
1531.282, 59686.00
1532.314, 59931.00
1533.346, 59977.00
1534.377, 60199.00
1535.409, 60400.00
1536.440, 60260.00
1537.472, 60440.00
1538.503, 60087.00
1539.534, 60558.00
1540.564, 60347.00
1541.595, 60503.00
1542.625, 60661.00
1543.656, 60386.00
1544.686, 60712.00
1545.716, 60853.00
1546.745, 60716.00
1547.775, 60803.00
1548.804, 60701.00
1549.834, 61243.00
1550.863, 61094.00
1551.892, 61182.00
1552.920, 61422.00
1553.949, 61406.00
1554.977, 61590.00
1556.006, 61480.00
1557.034, 61710.00
1558.062, 61722.00
1559.089, 61842.00
1560.117, 61660.00
1561.144, 61928.00
1562.172, 61854.00
1563.199, 61831.00
1564.226, 62283.00
1565.252, 62066.00
1566.279, 62273.00
1567.305, 61964.00
1568.332, 62302.00
1569.358, 62422.00
1570.384, 62616.00
1571.409, 62250.00
1572.435, 62773.00
##END=



