##NAMES=Ferberite
##RRUFFID=R040044
##IDEAL CHEMISTRY=Fe^2+^W^6+^O_4_
##LOCALITY=Chocote, Bolivia
##OWNER=RRUFF
##SOURCE=University of Arizona Mineral Museum
##DESCRIPTION=Black tabular single crystal
##STATUS=The identification of this mineral has been confirmed by X-ray diffraction and chemical analysis
##URL=rruff.info/R040044
##MEASURED CHEMISTRY=(Fe_0.82_Mn_0.08_Mg_0.07_Pb_0.03_)_Î£=1_W_1.00_O_4_
##PIN_ID=L01748
##ORIENTATION=Laser parallel to (1 0 1). Fiducial mark perpendicular to laser is parallel to b [0 1 0]
99.34400, 23109.00
100.5810, 23350.00
101.8190, 23260.00
103.0560, 23647.00
104.2930, 24287.00
105.5290, 24916.00
106.7660, 26683.00
108.0020, 26263.01
109.2390, 27168.00
110.4750, 26104.00
111.7110, 26094.00
112.9460, 26264.00
114.1820, 27222.00
115.4170, 27787.00
116.6530, 27492.00
117.8880, 27370.00
119.1230, 26507.00
120.3580, 25383.00
121.5920, 24908.00
122.8270, 24945.00
124.0610, 25569.00
125.2950, 25074.00
126.5290, 25100.00
127.7630, 25322.00
128.9970, 25814.00
130.2300, 26556.00
131.4640, 27263.00
132.6970, 27571.00
133.9300, 27854.00
135.1630, 27613.00
136.3950, 27159.00
137.6280, 26627.00
138.8600, 26192.00
140.0920, 25782.43
141.3240, 25525.00
142.5560, 25051.00
143.7880, 24971.00
145.0190, 24710.00
146.2510, 24885.00
147.4820, 25153.00
148.7130, 25021.00
149.9440, 25362.00
151.1750, 25664.00
152.4050, 25463.00
153.6360, 25493.00
154.8660, 25779.00
156.0960, 25865.00
157.3260, 25733.00
158.5560, 25881.00
159.7850, 25888.00
161.0150, 26244.00
162.2440, 25978.00
163.4730, 26224.00
164.7020, 26195.00
165.9310, 25840.00
167.1590, 26052.00
168.3880, 25891.00
169.6160, 25784.00
170.8440, 26061.00
172.0720, 26270.00
173.3000, 26005.00
174.5280, 26280.00
175.7550, 26845.00
176.9820, 27068.00
178.2100, 27558.00
179.4370, 27790.00
180.6630, 27977.00
181.8900, 27788.00
183.1170, 27666.00
184.3430, 27555.00
185.5690, 27057.00
186.7950, 27403.00
188.0210, 26906.00
189.2470, 26921.00
190.4720, 26978.00
191.6970, 26894.00
192.9230, 27153.00
194.1480, 27030.00
195.3730, 26924.00
196.5970, 27274.00
197.8220, 27330.00
199.0460, 27435.00
200.2700, 28017.00
201.4940, 28185.00
202.7180, 28180.00
203.9420, 27736.00
205.1660, 26986.00
206.3890, 26990.00
207.6120, 26689.00
208.8350, 26811.00
210.0580, 27154.00
211.2810, 27430.00
212.5040, 27351.00
213.7260, 27566.00
214.9480, 27190.00
216.1700, 27224.00
217.3920, 26969.00
218.6140, 26802.00
219.8360, 26491.00
221.0570, 26359.00
222.2790, 26338.00
223.5000, 26263.00
224.7210, 26276.00
225.9410, 26051.00
227.1620, 26031.00
228.3820, 25884.00
229.6030, 26263.00
230.8230, 26140.00
232.0430, 25967.00
233.2630, 26127.00
234.4820, 25976.00
235.7020, 26063.00
236.9210, 26028.00
238.1400, 25946.00
239.3590, 25929.00
240.5780, 26266.00
241.7970, 26072.00
243.0150, 26273.00
244.2340, 26116.00
245.4520, 26145.00
246.6700, 26295.00
247.8880, 26201.00
249.1060, 26106.00
250.3230, 26381.00
251.5400, 26318.00
252.7580, 26433.00
253.9750, 26338.00
255.1920, 26373.00
256.4080, 26609.00
257.6250, 27281.00
258.8410, 27183.18
260.0580, 27178.01
261.2740, 27412.00
262.4900, 26774.00
263.7050, 26939.00
264.9210, 26892.00
266.1360, 26995.00
267.3520, 27104.66
268.5670, 27123.00
269.7820, 27255.00
270.9960, 27341.00
272.2110, 27246.00
273.4250, 27473.00
274.6400, 27531.00
275.8540, 27847.00
277.0680, 27583.00
278.2810, 27560.00
279.4950, 27648.00
280.7090, 27444.00
281.9220, 27252.00
283.1350, 27580.00
284.3480, 27337.00
285.5610, 27493.00
286.7730, 27698.00
287.9860, 27387.00
289.1980, 27533.00
290.4100, 27623.00
291.6220, 27637.00
292.8340, 27744.00
294.0460, 27893.00
295.2570, 28114.00
296.4690, 28095.00
297.6800, 28431.00
298.8910, 28547.00
300.1020, 28699.00
301.3120, 29086.00
302.5230, 29086.00
303.7330, 28992.00
304.9440, 28931.00
306.1540, 28682.00
307.3630, 28573.00
308.5730, 28653.00
309.7830, 28347.00
310.9920, 28311.02
312.2010, 28357.00
313.4100, 28080.00
314.6190, 28298.00
315.8280, 28276.00
317.0370, 28414.00
318.2450, 28122.00
319.4530, 28428.00
320.6610, 28401.00
321.8690, 28516.00
323.0770, 28654.00
324.2850, 28891.00
325.4920, 28735.00
326.6990, 28823.00
327.9060, 29149.00
329.1130, 29142.00
330.3200, 29330.00
331.5270, 29469.00
332.7330, 29304.00
333.9390, 29432.00
335.1450, 29373.00
336.3510, 29417.00
337.5570, 29339.00
338.7630, 29341.00
339.9680, 29435.00
341.1740, 29592.00
342.3790, 29228.00
343.5840, 29709.00
344.7890, 29453.00
345.9930, 29633.00
347.1980, 29468.00
348.4020, 29639.00
349.6060, 29859.00
350.8100, 29721.00
352.0140, 29832.00
353.2180, 29824.00
354.4210, 30028.00
355.6250, 30049.00
356.8280, 29968.00
358.0310, 30015.00
359.2340, 30095.00
360.4360, 29949.00
361.6390, 30028.00
362.8410, 29939.00
364.0430, 30058.00
365.2450, 29779.00
366.4470, 30088.00
367.6490, 29866.00
368.8510, 30134.00
370.0520, 29970.00
371.2530, 29963.00
372.4540, 29915.00
373.6550, 29776.00
374.8560, 29875.00
376.0560, 29517.00
377.2570, 29732.00
378.4570, 29738.00
379.6570, 29599.00
380.8570, 29749.00
382.0570, 29651.00
383.2560, 29728.00
384.4560, 29740.00
385.6550, 29779.00
386.8540, 29979.00
388.0530, 29868.00
389.2520, 29855.00
390.4510, 30020.00
391.6490, 29960.00
392.8470, 29877.00
394.0450, 29994.00
395.2430, 30126.00
396.4410, 29863.00
397.6390, 30352.00
398.8360, 30366.00
400.0340, 30205.00
401.2310, 30139.00
402.4280, 30396.00
403.6250, 30350.00
404.8210, 30438.00
406.0180, 30399.00
407.2140, 30443.00
408.4100, 30350.00
409.6060, 30349.29
410.8020, 30259.00
411.9980, 30286.00
413.1930, 30166.00
414.3890, 30117.00
415.5840, 30110.00
416.7790, 30169.00
417.9740, 30160.00
419.1680, 30231.00
420.3630, 30391.00
421.5570, 30323.00
422.7510, 30073.00
423.9450, 30159.00
425.1390, 30227.00
426.3330, 30154.00
427.5270, 30178.00
428.7200, 30289.00
429.9130, 30266.00
431.1060, 30252.76
432.2990, 30669.00
433.4920, 30271.00
434.6840, 30324.00
435.8770, 30593.00
437.0690, 30443.00
438.2610, 30653.00
439.4530, 30477.00
440.6450, 30501.00
441.8360, 30559.00
443.0280, 30463.00
444.2190, 30674.00
445.4100, 30414.00
446.6010, 30700.00
447.7920, 30907.00
448.9820, 30716.00
450.1730, 30591.00
451.3630, 30904.00
452.5530, 30993.00
453.7430, 30914.00
454.9330, 30778.00
456.1230, 30845.00
457.3120, 30789.57
458.5010, 30948.00
459.6910, 30795.00
460.8800, 30908.00
462.0680, 30884.25
463.2570, 30845.00
464.4460, 31037.00
465.6340, 31084.00
466.8220, 31235.00
468.0100, 31267.00
469.1980, 31302.00
470.3860, 31081.00
471.5730, 31225.00
472.7600, 31195.00
473.9480, 31143.00
475.1350, 31219.00
476.3210, 31169.00
477.5080, 31468.00
478.6950, 31534.00
479.8810, 31360.00
481.0670, 31629.00
482.2530, 31330.00
483.4390, 31508.00
484.6250, 31390.00
485.8100, 31453.00
486.9960, 31598.00
488.1810, 31738.00
489.3660, 31490.00
490.5510, 31779.00
491.7360, 31662.00
492.9200, 31669.00
494.1050, 31962.00
495.2890, 31831.00
496.4730, 31967.00
497.6570, 31975.00
498.8400, 32064.00
500.0240, 32224.00
501.2070, 32148.00
502.3910, 32225.00
503.5740, 32185.00
504.7570, 32362.00
505.9400, 32287.00
507.1220, 32349.00
508.3050, 32435.00
509.4870, 32748.00
510.6690, 32731.00
511.8510, 32865.00
513.0330, 32390.00
514.2140, 32631.00
515.3960, 32675.00
516.5770, 32655.00
517.7580, 32754.00
518.9390, 32752.00
520.1200, 32700.00
521.3010, 32671.00
522.4810, 32653.83
523.6610, 32631.00
524.8420, 32600.00
526.0220, 32611.00
527.2010, 32642.82
528.3810, 32872.00
529.5610, 32765.00
530.7400, 32848.00
531.9190, 32948.00
533.0980, 32916.26
534.2770, 32861.00
535.4560, 32922.00
536.6340, 32791.00
537.8120, 32693.00
538.9910, 32799.00
540.1690, 33061.00
541.3460, 32847.00
542.5240, 33132.00
543.7020, 33056.00
544.8790, 33075.00
546.0560, 32965.00
547.2330, 33116.00
548.4100, 33186.00
549.5870, 33128.00
550.7630, 32983.00
551.9400, 33172.00
553.1160, 33279.00
554.2920, 33307.00
555.4680, 33434.00
556.6440, 33257.00
557.8190, 33209.00
558.9950, 33270.00
560.1700, 33179.00
561.3450, 33296.00
562.5200, 33349.00
563.6950, 33233.00
564.8690, 33337.00
566.0440, 33388.00
567.2180, 33377.00
568.3920, 33327.00
569.5660, 33247.00
570.7400, 33221.59
571.9130, 33189.32
573.0870, 33096.00
574.2600, 33139.00
575.4330, 33013.52
576.6060, 32940.00
577.7790, 32953.00
578.9520, 32999.00
580.1240, 32927.00
581.2960, 32923.61
582.4690, 32798.00
583.6410, 32872.00
584.8120, 32879.00
585.9840, 32928.00
587.1560, 32686.00
588.3270, 32921.00
589.4980, 32665.00
590.6690, 32545.00
591.8400, 32820.00
593.0110, 32653.00
594.1810, 33144.00
595.3510, 33008.00
596.5220, 33010.00
597.6920, 32809.00
598.8610, 33048.00
600.0310, 33294.00
601.2010, 33071.52
602.3700, 33671.00
603.5390, 32823.00
604.7080, 33008.00
605.8770, 32942.00
607.0460, 33171.00
608.2140, 32997.00
609.3830, 32990.00
610.5510, 33370.00
611.7190, 33277.00
612.8870, 33183.00
614.0550, 33170.00
615.2220, 33282.00
616.3900, 33218.00
617.5570, 33434.00
618.7240, 33243.00
619.8910, 33470.00
621.0580, 33339.00
622.2240, 33599.00
623.3910, 33649.00
624.5570, 33595.00
625.7230, 33498.00
626.8890, 33606.00
628.0550, 33603.00
629.2200, 33429.00
630.3860, 33629.07
631.5510, 33667.00
632.7160, 33791.00
633.8810, 33879.00
635.0460, 33766.00
636.2100, 33852.00
637.3750, 33864.00
638.5390, 33845.00
639.7030, 34015.00
640.8670, 34046.00
642.0310, 34134.00
643.1950, 33996.00
644.3580, 34076.00
645.5210, 34065.00
646.6850, 34070.00
647.8480, 34320.00
649.0100, 34232.00
650.1730, 34390.00
651.3350, 34379.00
652.4980, 34338.00
653.6600, 34361.00
654.8220, 34368.00
655.9840, 34463.27
657.1450, 34876.00
658.3070, 34761.00
659.4680, 34915.00
660.6300, 35191.00
661.7910, 35037.00
662.9510, 35412.00
664.1120, 35442.00
665.2730, 35451.00
666.4330, 35488.00
667.5930, 35515.00
668.7530, 35733.00
669.9130, 35963.00
671.0730, 35786.00
672.2320, 36005.00
673.3920, 36542.00
674.5510, 36365.00
675.7100, 36708.00
676.8690, 36902.00
678.0280, 37055.00
679.1860, 37145.00
680.3450, 37463.00
681.5030, 37797.00
682.6610, 37835.00
683.8190, 38023.00
684.9770, 38254.00
686.1340, 38297.00
687.2920, 38798.00
688.4490, 38966.00
689.6060, 39074.00
690.7630, 39061.00
691.9200, 39379.00
693.0760, 39473.00
694.2330, 39395.00
695.3890, 39560.00
696.5450, 39507.00
697.7010, 39024.00
698.8570, 39049.00
700.0130, 38656.00
701.1680, 38742.00
702.3230, 38619.00
703.4780, 38245.00
704.6330, 38303.00
705.7880, 37985.00
706.9430, 37953.00
708.0970, 37582.00
709.2520, 37491.00
710.4060, 37297.00
711.5600, 37263.00
712.7140, 37042.33
713.8670, 36785.00
715.0210, 36621.00
716.1740, 36718.00
717.3270, 36483.00
718.4800, 36435.00
719.6330, 36176.00
720.7860, 36214.00
721.9380, 36202.00
723.0910, 35981.00
724.2430, 36008.00
725.3950, 35851.00
726.5470, 36028.00
727.6980, 35963.00
728.8500, 35657.00
730.0010, 35813.00
731.1530, 35659.00
732.3040, 35628.00
733.4550, 35565.00
734.6050, 35570.00
735.7560, 35669.00
736.9060, 35624.00
738.0560, 35599.00
739.2060, 35476.00
740.3560, 35411.00
741.5060, 35708.00
742.6560, 35496.50
743.8050, 35617.61
744.9540, 35449.00
746.1030, 35524.00
747.2520, 35740.00
748.4010, 35374.00
749.5500, 35656.00
750.6980, 35479.00
751.8460, 35695.00
752.9950, 35565.00
754.1420, 35415.00
755.2900, 35563.00
756.4380, 35562.79
757.5850, 35745.00
758.7330, 35749.00
759.8800, 35922.00
761.0270, 35894.00
762.1730, 36055.00
763.3200, 35956.00
764.4670, 36158.00
765.6130, 35981.00
766.7590, 36039.00
767.9050, 36294.00
769.0510, 36092.00
770.1960, 36207.00
771.3420, 36236.00
772.4870, 36280.00
773.6320, 36381.00
774.7770, 36402.04
775.9220, 36489.00
777.0670, 36533.00
778.2110, 36554.57
779.3560, 36587.00
780.5000, 36612.00
781.6440, 36614.00
782.7880, 36681.12
783.9320, 36637.00
785.0750, 36731.00
786.2180, 36659.00
787.3620, 36680.00
788.5050, 36665.00
789.6480, 36695.00
790.7900, 36480.00
791.9330, 36591.00
793.0750, 36411.00
794.2170, 36644.00
795.3590, 36758.00
796.5010, 36522.00
797.6430, 36508.00
798.7850, 36764.00
799.9260, 36256.00
801.0670, 36647.00
802.2080, 36620.00
803.3490, 36641.00
804.4900, 36817.00
805.6310, 36662.00
806.7710, 36671.00
807.9110, 36785.00
809.0510, 36581.00
810.1910, 36847.00
811.3310, 36637.00
812.4710, 36868.00
813.6100, 36585.00
814.7490, 36602.00
815.8880, 36512.00
817.0270, 36833.00
818.1660, 36907.00
819.3050, 36815.00
820.4430, 36638.00
821.5820, 36789.00
822.7200, 36922.00
823.8580, 36890.00
824.9950, 36975.00
826.1330, 36980.00
827.2710, 37028.00
828.4080, 37208.00
829.5450, 37051.00
830.6820, 37291.00
831.8190, 37075.00
832.9560, 37285.00
834.0920, 37379.00
835.2280, 37313.00
836.3650, 37251.00
837.5010, 37685.00
838.6360, 37492.00
839.7720, 37810.00
840.9080, 37788.00
842.0430, 37948.00
843.1780, 37895.00
844.3130, 37855.00
845.4480, 38065.00
846.5830, 38202.00
847.7170, 38154.00
848.8520, 38648.00
849.9860, 38846.00
851.1200, 38759.00
852.2540, 39243.00
853.3870, 39445.00
854.5210, 39915.00
855.6540, 39858.00
856.7880, 40345.00
857.9210, 40516.00
859.0540, 40878.00
860.1860, 41795.00
861.3190, 41977.00
862.4510, 42671.00
863.5840, 43380.00
864.7160, 44165.00
865.8480, 44879.00
866.9790, 46162.00
868.1110, 47241.00
869.2420, 48503.00
870.3740, 49995.00
871.5050, 51411.00
872.6360, 53113.00
873.7660, 54762.00
874.8970, 56182.00
876.0280, 57550.00
877.1580, 59029.00
878.2880, 59759.00
879.4180, 60135.00
880.5480, 59989.00
881.6770, 59565.00
882.8070, 58350.00
883.9360, 57365.00
885.0650, 55858.00
886.1940, 54295.00
887.3230, 52894.00
888.4520, 51539.00
889.5800, 49934.00
890.7090, 48607.00
891.8370, 47297.00
892.9650, 46312.00
894.0930, 45105.00
895.2200, 44264.00
896.3480, 43079.00
897.4750, 42671.00
898.6020, 42002.00
899.7290, 41367.00
900.8560, 40564.00
901.9830, 40414.00
903.1090, 39859.00
904.2360, 39511.00
905.3620, 39456.00
906.4880, 39171.00
907.6140, 38862.00
908.7400, 38703.00
909.8650, 38559.00
910.9900, 38363.00
912.1160, 38322.00
913.2410, 38121.00
914.3660, 38083.00
915.4900, 38164.00
916.6150, 38076.00
917.7390, 37853.00
918.8640, 38011.00
919.9880, 37610.00
921.1120, 37600.00
922.2350, 37684.00
923.3590, 37900.00
924.4820, 37627.00
925.6060, 37728.00
926.7290, 37128.75
927.8520, 37705.77
928.9740, 38030.23
930.0970, 38115.71
931.2190, 37246.42
932.3420, 37610.02
933.4640, 37479.53
934.5860, 37328.78
935.7080, 37865.90
936.8290, 37135.48
937.9510, 37661.69
939.0720, 37686.28
940.1930, 37940.44
941.3140, 37697.48
942.4350, 37608.06
943.5560, 38015.93
944.6760, 38148.45
945.7960, 37501.00
946.9170, 37320.00
948.0370, 37550.00
949.1560, 37595.00
950.2760, 37688.00
951.3960, 37485.00
952.5150, 37468.00
953.6340, 37400.00
954.7530, 37398.00
955.8720, 37511.00
956.9910, 37721.00
958.1090, 37965.00
959.2280, 37718.00
960.3460, 37559.00
961.4640, 37624.00
962.5820, 37395.00
963.6990, 37726.00
964.8170, 37748.00
965.9340, 37495.00
967.0510, 37265.00
968.1690, 37772.00
969.2850, 37692.00
970.4020, 37481.00
971.5190, 37755.00
972.6350, 37675.00
973.7510, 37729.00
974.8670, 37541.00
975.9830, 37418.00
977.0990, 37716.00
978.2150, 37579.00
979.3300, 37692.00
980.4450, 37768.00
981.5600, 37777.00
982.6750, 37579.00
983.7900, 37781.00
984.9050, 37914.00
986.0190, 37520.00
987.1340, 37470.00
988.2480, 37649.00
989.3620, 37773.00
990.4750, 37650.00
991.5890, 37700.00
992.7020, 37623.00
993.8160, 37642.46
994.9290, 37685.95
996.0420, 37644.00
997.1550, 37807.00
998.2670, 37710.00
999.3800, 37794.00
1000.492, 37877.00
1001.604, 37659.00
1002.716, 38073.00
1003.828, 37772.00
1004.940, 37791.00
1006.051, 37923.00
1007.163, 37825.00
1008.274, 38044.00
1009.385, 37885.00
1010.496, 37939.00
1011.606, 37971.00
1012.717, 37903.00
1013.827, 37961.00
1014.937, 38169.00
1016.047, 37956.00
1017.157, 38063.00
1018.267, 37879.00
1019.377, 37845.00
1020.486, 37942.00
1021.595, 37861.58
1022.704, 37961.24
1023.813, 37899.00
1024.922, 38046.00
1026.030, 38104.00
1027.139, 37992.00
1028.247, 37909.00
1029.355, 38241.00
1030.463, 38148.00
1031.571, 38119.00
1032.678, 38119.00
1033.786, 38172.00
1034.893, 38087.00
1036.000, 38399.00
1037.107, 38321.00
1038.214, 37980.00
1039.321, 38569.00
1040.427, 38041.00
1041.533, 38478.00
1042.639, 38084.00
1043.745, 38475.00
1044.851, 38475.00
1045.957, 38588.00
1047.062, 38480.00
1048.168, 38410.00
1049.273, 38306.00
1050.378, 38406.00
1051.482, 38526.00
1052.587, 38381.00
1053.692, 38505.00
1054.796, 38467.00
1055.900, 38596.00
1057.004, 38587.67
1058.108, 38749.00
1059.212, 38615.00
1060.315, 38520.00
1061.418, 38570.00
1062.522, 38606.00
1063.625, 38714.00
1064.728, 38685.00
1065.830, 38715.00
1066.933, 38730.00
1068.035, 38621.00
1069.137, 38479.00
1070.239, 38664.00
1071.341, 38805.00
1072.443, 38728.00
1073.545, 38951.00
1074.646, 38948.00
1075.747, 38987.00
1076.848, 39068.00
1077.949, 38936.00
1079.050, 38812.00
1080.150, 38842.00
1081.251, 38890.00
1082.351, 38761.00
1083.451, 38667.00
1084.551, 38936.00
1085.651, 38989.00
1086.750, 39000.00
1087.850, 38906.00
1088.949, 39057.00
1090.048, 39055.00
1091.147, 39172.00
1092.246, 39002.00
1093.345, 38845.00
1094.443, 38971.00
1095.541, 38880.00
1096.639, 39012.00
1097.737, 39192.00
1098.835, 39101.00
1099.933, 39187.00
1101.030, 38972.00
1102.128, 39133.00
1103.225, 38838.00
1104.322, 38970.00
1105.419, 38870.00
1106.515, 38822.00
1107.612, 38972.00
1108.708, 38881.79
1109.804, 39138.00
1110.900, 38885.00
1111.996, 38849.00
1113.092, 38876.00
1114.187, 39295.00
1115.283, 39180.00
1116.378, 39045.00
1117.473, 39156.00
1118.568, 38934.00
1119.662, 39058.00
1120.757, 39177.00
1121.851, 39067.00
1122.946, 39159.56
1124.040, 39170.00
1125.134, 39134.00
1126.227, 39203.00
1127.321, 39129.00
1128.414, 39128.28
1129.508, 39117.00
1130.601, 39065.00
1131.693, 39116.00
1132.786, 39073.00
1133.879, 39139.00
1134.971, 39257.00
1136.064, 39003.00
1137.156, 39134.00
1138.248, 39046.00
1139.339, 39011.00
1140.431, 38829.00
1141.522, 38983.00
1142.614, 38799.00
1143.705, 39178.00
1144.796, 39014.00
1145.887, 39136.00
1146.977, 39036.00
1148.068, 38949.00
1149.158, 39201.00
1150.248, 38974.00
1151.338, 38869.00
1152.428, 39173.00
1153.518, 38955.00
1154.607, 39104.00
1155.696, 38734.00
1156.785, 38954.00
1157.874, 39118.00
1158.963, 38882.00
1160.052, 39014.00
1161.141, 39131.00
1162.229, 39035.00
1163.317, 39203.00
1164.405, 39140.00
1165.493, 39050.00
1166.581, 39053.00
1167.668, 39058.00
1168.756, 39208.00
1169.843, 39353.00
1170.930, 38963.00
1172.017, 39018.00
1173.103, 39193.00
1174.190, 39108.00
1175.276, 39304.00
1176.363, 39340.00
1177.449, 39089.00
1178.535, 39267.00
1179.620, 39230.00
1180.706, 39102.00
1181.791, 39056.00
1182.877, 39042.00
1183.962, 39180.00
1185.047, 39251.00
1186.131, 39311.00
1187.216, 39329.00
1188.300, 39045.00
1189.385, 39224.00
1190.469, 39030.00
1191.553, 39223.00
1192.637, 39226.00
1193.720, 39423.00
1194.804, 39207.00
1195.887, 39208.00
1196.970, 39284.00
1198.053, 39151.00
1199.136, 39395.00
1200.219, 39403.00
1201.301, 39108.00
1202.383, 39488.00
1203.465, 39907.00
1204.547, 40102.00
1205.629, 39513.00
1206.711, 39434.00
1207.792, 39573.00
1208.874, 39511.00
1209.955, 39519.95
1211.036, 39539.00
1212.117, 39456.00
1213.198, 39381.00
1214.278, 39246.00
1215.359, 39477.00
1216.439, 39634.00
1217.519, 39639.00
1218.599, 39576.00
1219.678, 39470.00
1220.758, 39514.00
1221.837, 39329.00
1222.917, 39488.00
1223.996, 39818.00
1225.075, 39688.00
1226.153, 39810.00
1227.232, 39564.00
1228.310, 39489.00
1229.389, 39481.00
1230.467, 39290.00
1231.545, 39446.00
1232.622, 39464.00
1233.700, 39596.00
1234.777, 39501.00
1235.855, 39761.00
1236.932, 39576.00
1238.009, 39594.00
1239.086, 39546.00
1240.162, 39747.00
1241.239, 39771.00
1242.315, 39812.73
1243.391, 39576.00
1244.467, 39819.00
1245.543, 39643.00
1246.619, 39474.00
1247.694, 39698.00
1248.769, 39654.00
1249.844, 39700.00
1250.919, 39562.00
1251.994, 39500.00
1253.069, 39683.00
1254.144, 39597.00
1255.218, 39655.64
1256.292, 39206.00
1257.366, 39628.00
1258.440, 39644.00
1259.514, 39463.00
1260.587, 39714.00
1261.661, 39574.00
1262.734, 39748.00
1263.807, 39352.00
1264.880, 39737.00
1265.952, 39550.00
1267.025, 39804.00
1268.097, 39533.00
1269.170, 39617.00
1270.242, 39667.00
1271.314, 39824.00
1272.385, 39534.00
1273.457, 39815.00
1274.528, 39664.00
1275.600, 39676.00
1276.671, 39633.00
1277.742, 39625.42
1278.812, 39661.50
1279.883, 39673.00
1280.954, 39766.00
1282.024, 39795.00
1283.094, 39895.00
1284.164, 39983.00
1285.234, 39985.88
1286.303, 40034.00
1287.373, 39978.00
1288.442, 39975.00
1289.511, 39911.00
1290.580, 39862.13
1291.649, 40139.00
1292.718, 39768.00
1293.786, 39999.00
1294.855, 40030.00
1295.923, 39793.00
1296.991, 39959.00
1298.059, 39634.00
1299.126, 40069.00
1300.194, 40003.00
1301.261, 39875.00
1302.328, 40105.00
1303.395, 39979.00
1304.462, 40182.00
1305.529, 39977.00
1306.596, 40025.00
1307.662, 39719.00
1308.728, 40046.00
1309.794, 40157.00
1310.860, 39929.00
1311.926, 40109.00
1312.991, 40080.00
1314.057, 39941.00
1315.122, 40204.00
1316.187, 39920.00
1317.252, 40098.00
1318.317, 40166.00
1319.381, 40056.00
1320.446, 40186.00
1321.510, 40044.00
1322.574, 40220.00
1323.638, 40172.00
1324.702, 40092.00
1325.766, 40107.00
1326.829, 40063.00
1327.892, 40075.00
1328.956, 40108.69
1330.019, 40008.00
1331.081, 40178.00
1332.144, 40293.00
1333.206, 40291.00
1334.269, 40455.00
1335.331, 40312.00
1336.393, 40393.61
1337.455, 40337.00
1338.516, 40382.00
1339.578, 40218.00
1340.639, 40117.00
1341.701, 40268.00
1342.762, 40295.00
1343.822, 40295.00
1344.883, 40102.00
1345.944, 40244.00
1347.004, 40319.00
1348.064, 39989.00
1349.124, 40363.00
1350.184, 40291.00
1351.244, 40050.00
1352.304, 40357.00
1353.363, 40300.00
1354.422, 40323.00
1355.481, 40346.00
1356.540, 40305.00
1357.599, 40524.00
1358.657, 40210.00
1359.716, 40431.00
1360.774, 40313.00
1361.832, 40485.00
1362.890, 40372.00
1363.948, 40364.00
1365.006, 40494.00
1366.063, 40378.00
1367.120, 40409.00
1368.178, 40589.00
1369.234, 40386.00
1370.291, 40420.00
1371.348, 40164.00
1372.404, 40598.00
1373.461, 40611.00
1374.517, 40588.00
1375.573, 40292.00
1376.629, 40334.00
1377.684, 40422.00
1378.740, 40577.00
1379.795, 40475.00
1380.850, 40514.00
1381.905, 40330.00
1382.960, 40401.00
1384.015, 40391.42
1385.070, 40680.00
1386.124, 40491.00
1387.178, 40563.00
1388.232, 40690.00
1389.286, 40356.00
1390.340, 40528.00
1391.393, 40520.00
1392.447, 40501.00
1393.500, 40681.00
1394.553, 40657.00
1395.606, 40486.00
1396.659, 40486.00
1397.711, 40653.00
1398.764, 40694.00
1399.816, 40770.00
1400.868, 40472.00
1401.920, 40889.00
1402.972, 40384.00
1404.023, 40772.00
1405.075, 40775.00
1406.126, 40760.00
1407.177, 40876.00
1408.228, 40568.00
1409.279, 40879.00
1410.330, 40630.00
1411.380, 40398.00
1412.431, 40720.00
1413.481, 40551.00
1414.531, 40928.00
1415.580, 40567.00
1416.630, 40567.00
1417.680, 40907.00
1418.729, 40580.00
1419.778, 40750.00
1420.827, 40684.00
1421.876, 40536.00
1422.925, 40667.00
1423.973, 40670.00
1425.022, 40671.00
1426.070, 40606.00
1427.118, 40622.35
1428.166, 40637.85
1429.214, 40617.00
1430.261, 40718.00
1431.309, 40742.00
1432.356, 40808.00
1433.403, 41013.00
1434.450, 41083.00
1435.497, 40970.00
1436.543, 40861.00
1437.590, 40987.00
1438.636, 40827.00
1439.682, 40792.00
1440.728, 40859.00
1441.774, 40884.00
1442.819, 40886.18
1443.865, 40924.00
1444.910, 40845.00
1445.955, 40847.00
1447.000, 40684.00
1448.045, 41078.00
1449.090, 41034.00
1450.134, 40886.00
1451.178, 40972.00
1452.223, 40816.00
1453.267, 40815.00
1454.310, 41008.00
1455.354, 41048.00
1456.398, 40741.00
1457.441, 41229.00
1458.484, 41023.00
1459.527, 40926.00
1460.570, 41056.00
1461.613, 40974.00
1462.655, 41042.63
1463.698, 40834.00
1464.740, 41092.00
1465.782, 41108.00
1466.824, 40986.00
1467.866, 41150.00
1468.907, 41272.00
1469.948, 41148.00
1470.990, 40910.00
1472.031, 41052.00
1473.072, 41011.00
1474.112, 41101.00
1475.153, 40931.00
1476.194, 40947.00
1477.234, 40995.00
1478.274, 41041.00
1479.314, 41076.00
1480.354, 41088.00
1481.393, 41086.25
1482.433, 41083.00
1483.472, 41084.00
1484.511, 41059.00
1485.550, 41132.00
1486.589, 41099.07
1487.628, 41132.00
1488.666, 41113.00
1489.704, 41037.00
1490.743, 41095.00
1491.781, 41152.00
1492.819, 41182.86
1493.856, 41401.00
1494.894, 41239.00
1495.931, 41298.00
1496.968, 41138.00
1498.005, 41189.00
1499.042, 41270.00
1500.079, 41097.00
1501.115, 41153.00
1502.152, 41102.00
1503.188, 41043.00
1504.224, 41344.00
1505.260, 41294.00
1506.296, 41296.00
1507.331, 41175.00
1508.367, 41320.00
1509.402, 41286.00
1510.437, 41334.00
1511.472, 41167.00
1512.507, 41181.00
1513.541, 41264.00
1514.576, 41312.00
1515.610, 41239.00
1516.644, 41431.00
1517.678, 41401.00
1518.712, 41097.00
1519.746, 41261.00
1520.779, 41115.00
1521.813, 41266.00
1522.846, 41297.00
1523.879, 41362.00
1524.912, 41282.00
1525.944, 41365.01
1526.977, 41385.00
1528.009, 41386.00
1529.041, 41472.00
1530.073, 41347.00
1531.105, 41376.29
1532.137, 41292.53
1533.168, 41442.20
1534.200, 41528.73
1535.231, 41555.50
1536.262, 41343.59
1537.293, 41439.90
1538.324, 41412.69
1539.354, 41380.41
1540.385, 41520.09
1541.415, 41342.89
1542.445, 41479.85
1543.475, 41491.40
1544.505, 41560.35
1545.534, 41505.00
1546.564, 41488.05
1547.593, 41595.42
1548.622, 41633.95
1549.651, 41564.30
1550.680, 41636.89
1551.708, 41455.34
1552.737, 41496.80
1553.765, 41634.47
1554.793, 41571.06
1555.821, 41645.92
1556.849, 41668.11
1557.877, 41451.00
1558.904, 41650.07
1559.932, 41669.15
1560.959, 41503.43
1561.986, 41688.23
1563.013, 41547.99
1564.039, 41523.76
1565.066, 41586.85
1566.092, 41558.91
1567.119, 41674.49
1568.145, 41444.00
1569.170, 41708.00
1570.196, 41828.00
##END=



