##NAMES=Fluorapatite
##RRUFFID=R050274
##IDEAL CHEMISTRY=Ca_5_(PO_4_)_3_F
##LOCALITY=Minas Gerais, Brazil
##OWNER=RRUFF
##SOURCE=Marcus Origlieri
##DESCRIPTION=Aggregate of blue crystal fragments separated by veins of quartz
##STATUS=The identification of this mineral has been confirmed by X-ray diffraction and chemical analysis
##URL=rruff.info/R050274
##MEASURED CHEMISTRY=Ca_5.00_((P_0.97_Si_0.02_S_0.01_)O_4_)_3_(F_0.90_Cl_0.10_)
##PIN_ID=L01565
##ORIENTATION=Laser parallel to -a* (-1 0 0). Fiducial mark perpendicular to laser is parallel to -c [0 0 -1]
118.1340, 7930.000
119.3650, 7935.000
120.5960, 8031.000
121.8270, 8028.000
123.0580, 8094.429
124.2880, 8241.000
125.5190, 8222.000
126.7490, 8261.000
127.9790, 8355.000
129.2090, 8372.000
130.4390, 8528.000
131.6680, 8520.000
132.8980, 8724.000
134.1270, 8719.000
135.3560, 8674.000
136.5850, 8745.000
137.8140, 8822.000
139.0430, 8815.000
140.2710, 8885.713
141.5000, 8946.000
142.7280, 8961.000
143.9560, 8943.000
145.1840, 8962.000
146.4120, 9047.000
147.6390, 9063.000
148.8670, 9164.000
150.0940, 9037.000
151.3210, 9076.000
152.5490, 9219.000
153.7750, 9283.000
155.0020, 9150.000
156.2290, 9253.000
157.4550, 9219.000
158.6810, 9409.000
159.9080, 9325.000
161.1340, 9285.000
162.3590, 9375.000
163.5850, 9386.000
164.8110, 9443.000
166.0360, 9554.000
167.2610, 9515.875
168.4860, 9463.000
169.7110, 9496.000
170.9360, 9575.000
172.1610, 9594.000
173.3850, 9668.000
174.6100, 9683.000
175.8340, 9753.000
177.0580, 9673.000
178.2820, 9778.000
179.5050, 9808.000
180.7290, 9682.000
181.9520, 9855.000
183.1760, 9753.000
184.3990, 9857.000
185.6220, 9784.000
186.8450, 9851.000
188.0670, 9770.000
189.2900, 9909.000
190.5120, 10001.00
191.7340, 9978.000
192.9560, 9996.000
194.1780, 10073.00
195.4000, 10046.00
196.6220, 10237.00
197.8430, 10228.00
199.0640, 10325.00
200.2860, 10377.50
201.5070, 10466.00
202.7270, 10441.00
203.9480, 10378.00
205.1690, 10397.00
206.3890, 10463.00
207.6090, 10458.00
208.8290, 10523.00
210.0490, 10397.00
211.2690, 10471.00
212.4890, 10390.00
213.7080, 10436.00
214.9280, 10503.00
216.1470, 10453.00
217.3660, 10461.00
218.5850, 10490.00
219.8030, 10475.14
221.0220, 10431.00
222.2400, 10492.00
223.4590, 10543.00
224.6770, 10551.00
225.8950, 10495.00
227.1120, 10669.00
228.3300, 10596.00
229.5480, 10626.00
230.7650, 10704.00
231.9820, 10654.00
233.1990, 10693.37
234.4160, 10618.00
235.6330, 10692.00
236.8490, 10730.00
238.0660, 10716.00
239.2820, 10738.00
240.4980, 10767.46
241.7140, 10843.00
242.9300, 10846.00
244.1460, 10831.00
245.3610, 10902.00
246.5770, 10891.17
247.7920, 10834.00
249.0070, 10907.00
250.2220, 10883.00
251.4370, 10855.00
252.6510, 10914.00
253.8660, 10892.89
255.0800, 10972.00
256.2940, 10936.00
257.5080, 11049.00
258.7220, 11126.00
259.9360, 11094.00
261.1490, 11065.00
262.3630, 11167.00
263.5760, 11059.00
264.7890, 11328.00
266.0020, 11221.00
267.2150, 11318.00
268.4270, 11260.00
269.6400, 11331.00
270.8520, 11383.00
272.0640, 11360.00
273.2760, 11396.00
274.4880, 11390.00
275.7000, 11400.00
276.9120, 11423.00
278.1230, 11616.00
279.3340, 11549.00
280.5450, 11576.00
281.7560, 11622.00
282.9670, 11581.00
284.1780, 11673.00
285.3880, 11595.00
286.5980, 11683.00
287.8090, 11710.00
289.0190, 11693.00
290.2290, 11740.00
291.4380, 11783.00
292.6480, 11783.00
293.8570, 11828.20
295.0670, 11827.00
296.2760, 11892.00
297.4850, 11878.00
298.6930, 11922.00
299.9020, 11961.00
301.1110, 11928.00
302.3190, 11909.00
303.5270, 11956.00
304.7350, 11960.00
305.9430, 12073.00
307.1510, 12000.00
308.3580, 12110.00
309.5660, 12078.06
310.7730, 11981.00
311.9800, 12047.00
313.1870, 12074.00
314.3940, 12086.00
315.6010, 12104.00
316.8070, 11987.00
318.0130, 12081.00
319.2200, 12019.00
320.4260, 12094.00
321.6310, 11998.00
322.8370, 11940.00
324.0430, 12210.00
325.2480, 12161.00
326.4540, 12269.00
327.6590, 12205.00
328.8640, 12122.00
330.0680, 12234.00
331.2730, 12343.00
332.4780, 12265.00
333.6820, 12181.00
334.8860, 12253.00
336.0900, 12340.00
337.2940, 12311.00
338.4980, 12366.00
339.7010, 12466.00
340.9050, 12364.00
342.1080, 12489.00
343.3110, 12463.00
344.5140, 12589.00
345.7170, 12439.00
346.9200, 12614.00
348.1220, 12567.00
349.3240, 12605.00
350.5270, 12615.00
351.7290, 12620.00
352.9310, 12628.00
354.1320, 12728.00
355.3340, 12797.00
356.5350, 12785.00
357.7370, 12761.00
358.9380, 12781.00
360.1390, 12795.38
361.3400, 12719.00
362.5400, 12837.00
363.7410, 12905.00
364.9410, 12883.00
366.1410, 12826.00
367.3410, 12979.00
368.5410, 13083.00
369.7410, 13002.00
370.9400, 12902.00
372.1400, 12999.00
373.3390, 13055.00
374.5380, 13041.00
375.7370, 13182.00
376.9360, 13103.00
378.1350, 13071.00
379.3330, 13137.00
380.5310, 13076.00
381.7300, 13169.00
382.9280, 13236.00
384.1260, 13370.00
385.3230, 13178.00
386.5210, 13297.00
387.7180, 13196.00
388.9160, 13456.00
390.1130, 13379.00
391.3100, 13387.00
392.5060, 13409.00
393.7030, 13497.00
394.9000, 13477.00
396.0960, 13540.00
397.2920, 13709.00
398.4880, 13520.00
399.6840, 13704.00
400.8800, 13572.00
402.0750, 13775.00
403.2710, 13758.00
404.4660, 13809.00
405.6610, 13845.00
406.8560, 13849.00
408.0510, 13998.00
409.2450, 13878.00
410.4400, 13968.00
411.6340, 14015.00
412.8280, 14288.00
414.0220, 14255.00
415.2160, 14238.00
416.4100, 14534.00
417.6030, 14619.00
418.7970, 14770.00
419.9900, 14944.00
421.1830, 15038.00
422.3760, 15221.00
423.5690, 15337.00
424.7610, 15390.00
425.9540, 15502.00
427.1460, 15568.00
428.3380, 15620.00
429.5300, 15613.55
430.7220, 15617.65
431.9140, 15543.00
433.1050, 15514.00
434.2970, 15483.00
435.4880, 15330.00
436.6790, 15466.00
437.8700, 15194.00
439.0610, 15232.00
440.2510, 15234.00
441.4420, 15312.00
442.6320, 15212.00
443.8220, 15272.00
445.0120, 15318.00
446.2020, 15219.00
447.3910, 15302.00
448.5810, 15199.00
449.7700, 15380.00
450.9600, 15280.00
452.1490, 15323.00
453.3370, 15238.00
454.5260, 15138.00
455.7150, 15233.00
456.9030, 15352.00
458.0910, 15218.00
459.2800, 15265.00
460.4670, 15266.00
461.6550, 15183.00
462.8430, 15368.00
464.0300, 15320.00
465.2180, 15300.00
466.4050, 15338.00
467.5920, 15339.00
468.7790, 15371.86
469.9650, 15463.00
471.1520, 15447.00
472.3380, 15469.00
473.5250, 15504.00
474.7110, 15460.22
475.8970, 15558.00
477.0820, 15431.00
478.2680, 15502.00
479.4540, 15582.00
480.6390, 15660.00
481.8240, 15627.00
483.0090, 15805.00
484.1940, 15760.00
485.3780, 15851.00
486.5630, 15904.00
487.7470, 15783.00
488.9320, 15952.00
490.1160, 16038.00
491.3000, 15846.00
492.4830, 15996.00
493.6670, 16034.00
494.8500, 15858.00
496.0340, 16055.00
497.2170, 15964.00
498.4000, 16026.00
499.5820, 16210.00
500.7650, 16159.00
501.9480, 16279.00
503.1300, 16233.00
504.3120, 16220.00
505.4940, 16388.00
506.6760, 16591.00
507.8580, 16478.00
509.0390, 16543.00
510.2210, 16464.00
511.4020, 16451.00
512.5830, 16625.00
513.7640, 16587.00
514.9450, 16613.00
516.1250, 16739.00
517.3060, 16732.00
518.4860, 16855.00
519.6660, 16779.00
520.8460, 16825.00
522.0260, 16904.00
523.2060, 17004.00
524.3850, 17077.00
525.5650, 17181.00
526.7440, 17020.00
527.9230, 16920.00
529.1020, 17031.00
530.2810, 17081.00
531.4590, 17120.00
532.6380, 17255.00
533.8160, 17314.00
534.9940, 17244.00
536.1720, 17282.00
537.3500, 17355.00
538.5270, 17281.00
539.7050, 17536.00
540.8820, 17484.00
542.0590, 17625.00
543.2360, 17544.00
544.4130, 17641.00
545.5900, 17709.00
546.7660, 17736.00
547.9430, 17857.00
549.1190, 17734.00
550.2950, 17941.00
551.4710, 17841.00
552.6470, 17950.00
553.8220, 18025.00
554.9980, 18161.00
556.1730, 18179.31
557.3480, 18239.65
558.5230, 18235.00
559.6980, 18231.00
560.8730, 18280.00
562.0470, 18141.00
563.2220, 18385.00
564.3960, 18508.00
565.5700, 18396.00
566.7440, 18534.00
567.9170, 18567.00
569.0910, 18647.00
570.2640, 18817.00
571.4380, 18667.00
572.6110, 19084.00
573.7840, 19013.00
574.9570, 19169.00
576.1290, 19061.00
577.3020, 19268.00
578.4740, 19652.00
579.6460, 19833.00
580.8180, 19761.00
581.9900, 19886.00
583.1620, 20035.00
584.3330, 20333.00
585.5040, 20451.00
586.6760, 20519.00
587.8470, 20629.00
589.0180, 20570.51
590.1880, 20315.00
591.3590, 20421.00
592.5290, 20251.00
593.7000, 20172.00
594.8700, 20117.00
596.0400, 20030.00
597.2090, 19980.53
598.3790, 19967.00
599.5490, 19907.00
600.7180, 19901.00
601.8870, 19936.00
603.0560, 20166.00
604.2250, 20222.00
605.3940, 20271.00
606.5620, 20214.00
607.7300, 20297.00
608.8990, 20250.00
610.0670, 20121.00
611.2350, 20247.00
612.4020, 20221.00
613.5700, 20365.00
614.7370, 20276.00
615.9050, 20208.00
617.0720, 20459.00
618.2390, 20542.00
619.4060, 20409.00
620.5720, 20462.00
621.7390, 20740.00
622.9050, 20692.00
624.0710, 20739.00
625.2370, 20674.00
626.4030, 20720.00
627.5690, 20803.00
628.7340, 20914.00
629.9000, 20875.00
631.0650, 20873.00
632.2300, 20977.00
633.3950, 20873.00
634.5600, 20903.00
635.7240, 21065.00
636.8890, 21086.00
638.0530, 21194.00
639.2170, 21193.00
640.3810, 21246.00
641.5450, 21090.00
642.7080, 21184.00
643.8720, 21242.76
645.0350, 21419.00
646.1980, 21483.00
647.3610, 21490.00
648.5240, 21650.00
649.6870, 21621.00
650.8490, 21439.00
652.0120, 21900.00
653.1740, 21612.00
654.3360, 21932.00
655.4980, 21819.00
656.6600, 21853.00
657.8210, 21661.00
658.9830, 21999.00
660.1440, 21923.00
661.3050, 21955.00
662.4660, 22040.00
663.6270, 22006.00
664.7870, 22318.00
665.9480, 22169.00
667.1080, 22108.00
668.2680, 22381.00
669.4280, 22319.00
670.5880, 22298.00
671.7480, 22280.00
672.9070, 22428.00
674.0670, 22437.25
675.2260, 22515.00
676.3850, 22541.00
677.5440, 22661.00
678.7030, 22706.38
679.8610, 22802.00
681.0200, 22826.00
682.1780, 22892.00
683.3360, 22928.00
684.4940, 22932.13
685.6520, 22975.14
686.8090, 22916.00
687.9670, 23001.00
689.1240, 22969.00
690.2810, 22938.00
691.4380, 23111.00
692.5950, 23082.00
693.7520, 23335.00
694.9080, 23393.00
696.0650, 23491.00
697.2210, 23369.00
698.3770, 23356.00
699.5330, 23499.00
700.6880, 23487.00
701.8440, 23454.00
702.9990, 23454.00
704.1550, 23446.00
705.3100, 23494.72
706.4650, 23546.16
707.6190, 23632.00
708.7740, 23682.00
709.9290, 23774.00
711.0830, 23803.00
712.2370, 23889.00
713.3910, 24094.00
714.5450, 24275.00
715.6980, 23898.00
716.8520, 24109.00
718.0050, 24079.00
719.1580, 24343.00
720.3110, 24092.00
721.4640, 24027.00
722.6170, 24381.00
723.7700, 24299.00
724.9220, 24322.00
726.0740, 24424.00
727.2260, 24255.00
728.3780, 24457.00
729.5300, 24527.00
730.6810, 24432.00
731.8330, 24716.00
732.9840, 24661.00
734.1350, 24643.00
735.2860, 24643.00
736.4370, 24761.00
737.5880, 24637.00
738.7380, 24735.00
739.8880, 24879.00
741.0390, 24702.00
742.1890, 25054.00
743.3380, 24997.00
744.4880, 25001.00
745.6380, 25188.00
746.7870, 24989.00
747.9360, 25138.00
749.0850, 25248.00
750.2340, 25369.00
751.3830, 25379.55
752.5310, 25174.00
753.6800, 25386.00
754.8280, 25352.00
755.9760, 25414.00
757.1240, 25490.00
758.2720, 25534.00
759.4190, 25465.00
760.5670, 25475.00
761.7140, 25676.00
762.8610, 25600.00
764.0080, 25783.00
765.1550, 25613.00
766.3020, 25740.00
767.4480, 25885.00
768.5950, 25784.00
769.7410, 25917.00
770.8870, 26046.00
772.0330, 25979.00
773.1780, 26029.00
774.3240, 26087.00
775.4690, 26135.00
776.6140, 26230.00
777.7590, 26187.00
778.9040, 26233.00
780.0490, 26174.00
781.1940, 26338.00
782.3380, 26380.00
783.4820, 26606.00
784.6260, 26315.00
785.7700, 26392.00
786.9140, 26506.00
788.0580, 26599.00
789.2010, 26664.00
790.3450, 26651.00
791.4880, 26660.00
792.6310, 26547.00
793.7730, 26619.00
794.9160, 26717.00
796.0590, 27071.00
797.2010, 26983.00
798.3430, 26854.00
799.4850, 27021.00
800.6270, 26839.00
801.7690, 26939.00
802.9100, 26993.00
804.0520, 26997.37
805.1930, 27103.00
806.3340, 27152.00
807.4750, 27164.00
808.6160, 27271.00
809.7560, 27471.00
810.8970, 27408.00
812.0370, 27400.00
813.1770, 27496.00
814.3170, 27429.00
815.4570, 27425.00
816.5960, 27778.00
817.7360, 27897.00
818.8750, 27738.00
820.0140, 27898.00
821.1530, 27739.00
822.2920, 27700.00
823.4310, 27872.00
824.5690, 27863.00
825.7070, 27982.00
826.8460, 28144.00
827.9840, 28119.00
829.1220, 28218.00
830.2590, 28159.00
831.3970, 28118.00
832.5340, 28181.00
833.6710, 28259.00
834.8080, 28129.00
835.9450, 28372.00
837.0820, 28309.00
838.2190, 28338.00
839.3550, 28423.00
840.4910, 28393.00
841.6270, 28484.00
842.7630, 28445.00
843.8990, 28500.12
845.0350, 28523.00
846.1700, 28624.00
847.3060, 28633.00
848.4410, 28774.00
849.5760, 28800.00
850.7100, 28732.00
851.8450, 28804.00
852.9800, 28983.00
854.1140, 28886.00
855.2480, 28982.00
856.3820, 29048.00
857.5160, 29042.00
858.6500, 29037.00
859.7830, 29108.00
860.9170, 29105.23
862.0500, 29147.00
863.1830, 29237.00
864.3160, 29337.00
865.4480, 29369.21
866.5810, 29410.00
867.7130, 29466.00
868.8460, 29555.00
869.9780, 29623.00
871.1100, 29677.30
872.2410, 29725.82
873.3730, 29787.00
874.5050, 29827.00
875.6360, 29888.00
876.7670, 30012.00
877.8980, 29758.00
879.0290, 29818.00
880.1590, 29880.00
881.2900, 29915.00
882.4200, 29901.00
883.5500, 29912.00
884.6800, 30227.00
885.8100, 30059.00
886.9400, 30147.00
888.0690, 30221.00
889.1990, 30133.00
890.3280, 30434.00
891.4570, 30117.00
892.5860, 30413.00
893.7140, 30568.00
894.8430, 30480.00
895.9710, 30800.00
897.1000, 30381.00
898.2280, 30525.00
899.3560, 30739.00
900.4830, 30746.00
901.6110, 30879.00
902.7380, 30826.00
903.8660, 30959.00
904.9930, 30987.00
906.1200, 31205.00
907.2460, 31027.00
908.3730, 31155.00
909.5000, 31233.00
910.6260, 31038.00
911.7520, 31259.00
912.8780, 31462.00
914.0040, 31160.00
915.1290, 31682.00
916.2550, 31373.00
917.3800, 31627.00
918.5050, 31601.00
919.6300, 31598.00
920.7550, 31576.00
921.8800, 31549.00
923.0040, 31611.92
924.1290, 31877.00
925.2530, 31789.00
926.3770, 31899.00
927.5010, 32090.00
928.6250, 32125.00
929.7480, 31963.00
930.8720, 32159.00
931.9950, 32092.00
933.1180, 32313.00
934.2410, 32293.00
935.3640, 32387.00
936.4860, 32560.00
937.6090, 32600.00
938.7310, 32656.00
939.8530, 32992.00
940.9750, 33065.00
942.0970, 33111.00
943.2180, 33182.00
944.3400, 33278.00
945.4610, 33547.55
946.5820, 33982.00
947.7030, 34300.00
948.8240, 34801.00
949.9450, 35467.00
951.0650, 36572.00
952.1860, 37427.00
953.3060, 38772.00
954.4260, 40585.00
955.5460, 43136.00
956.6650, 45435.00
957.7850, 47535.00
958.9040, 49443.00
960.0230, 50634.00
961.1420, 50640.00
962.2610, 49545.00
963.3800, 48248.00
964.4990, 46400.00
965.6170, 44510.00
966.7350, 42391.00
967.8530, 40496.00
968.9710, 39078.00
970.0890, 37759.00
971.2070, 36658.00
972.3240, 36331.00
973.4410, 35704.00
974.5580, 35202.00
975.6750, 35014.00
976.7920, 34985.00
977.9090, 34786.00
979.0250, 34758.00
980.1410, 34878.00
981.2580, 34699.00
982.3740, 34682.00
983.4890, 34696.00
984.6050, 34813.00
985.7200, 34568.00
986.8360, 34610.00
987.9510, 34898.00
989.0660, 34751.00
990.1810, 34786.00
991.2950, 34904.00
992.4100, 34892.00
993.5240, 35072.00
994.6390, 35042.00
995.7530, 35295.00
996.8660, 35374.00
997.9800, 35342.00
999.0940, 35373.00
1000.207, 35626.00
1001.320, 35585.00
1002.433, 35665.06
1003.546, 35646.00
1004.659, 35769.00
1005.772, 35800.00
1006.884, 35975.00
1007.996, 36140.00
1009.108, 36146.57
1010.220, 35922.00
1011.332, 36202.00
1012.444, 36210.00
1013.555, 36228.00
1014.666, 36353.00
1015.777, 36248.00
1016.888, 36298.00
1017.999, 36405.00
1019.110, 36415.92
1020.220, 36467.00
1021.331, 36582.00
1022.441, 36727.00
1023.551, 36834.00
1024.661, 36973.00
1025.770, 37050.00
1026.880, 37106.00
1027.989, 37161.00
1029.098, 37305.00
1030.207, 37396.00
1031.316, 37463.57
1032.425, 37680.00
1033.533, 37632.00
1034.642, 37714.00
1035.750, 37869.00
1036.858, 38050.00
1037.966, 38274.00
1039.073, 38476.00
1040.181, 38446.00
1041.288, 38612.00
1042.396, 38930.00
1043.503, 39249.00
1044.610, 39365.32
1045.716, 39589.53
1046.823, 39587.00
1047.929, 39740.00
1049.036, 39719.05
1050.142, 39514.00
1051.248, 39480.00
1052.353, 39418.00
1053.459, 39156.00
1054.564, 39236.00
1055.670, 39103.00
1056.775, 39194.00
1057.880, 38870.00
1058.985, 38687.00
1060.089, 38874.00
1061.194, 38904.00
1062.298, 38819.00
1063.402, 39027.00
1064.506, 38755.00
1065.610, 39111.00
1066.713, 38981.00
1067.817, 39149.00
1068.920, 39146.00
1070.023, 39359.00
1071.126, 39567.00
1072.229, 39797.00
1073.332, 39578.00
1074.435, 39802.00
1075.537, 39693.00
1076.639, 39702.00
1077.741, 39963.00
1078.843, 39986.00
1079.945, 39916.00
1081.046, 39802.00
1082.148, 39902.00
1083.249, 39750.00
1084.350, 39812.00
1085.451, 39867.00
1086.551, 40050.00
1087.652, 40093.00
1088.752, 40208.00
1089.853, 40123.00
1090.953, 40239.00
1092.053, 40151.00
1093.152, 40311.00
1094.252, 40200.00
1095.351, 40464.00
1096.451, 40496.00
1097.550, 40484.00
1098.649, 40509.00
1099.748, 40590.00
1100.846, 40709.00
1101.945, 40708.00
1103.043, 40630.00
1104.141, 40732.00
1105.239, 41024.00
1106.337, 40873.00
1107.434, 40809.00
1108.532, 41144.00
1109.629, 40973.00
1110.726, 41162.00
1111.823, 41439.00
1112.920, 41330.00
1114.017, 41259.00
1115.113, 41229.00
1116.210, 41526.00
1117.306, 41692.00
1118.402, 41579.00
1119.498, 41442.00
1120.593, 41847.00
1121.689, 41999.00
1122.784, 41963.00
1123.879, 41855.00
1124.974, 42119.00
1126.069, 42046.00
1127.164, 42220.00
1128.259, 42189.00
1129.353, 42235.00
1130.447, 42313.58
1131.541, 42416.00
1132.635, 42388.00
1133.729, 42486.00
1134.822, 42461.00
1135.916, 42277.00
1137.009, 42425.00
1138.102, 42522.00
1139.195, 42662.00
1140.288, 42793.00
1141.380, 42877.00
1142.473, 42908.02
1143.565, 42939.54
1144.657, 42927.00
1145.749, 42976.00
1146.841, 43039.00
1147.932, 43186.00
1149.024, 43159.64
1150.115, 43051.00
1151.206, 43183.00
1152.297, 43124.00
1153.388, 43189.00
1154.479, 43292.00
1155.569, 43328.39
1156.659, 43429.65
1157.750, 43472.00
1158.839, 43600.00
1159.929, 43605.00
1161.019, 43666.38
1162.108, 43780.34
1163.198, 43787.00
1164.287, 44009.00
1165.376, 44011.00
1166.465, 44145.00
1167.553, 44000.00
1168.642, 44145.00
1169.730, 44068.00
1170.818, 44219.00
1171.906, 44452.00
1172.994, 44369.00
1174.082, 44410.00
1175.170, 44342.00
##END=



