##NAMES=Hedenbergite
##RRUFFID=R060040
##IDEAL CHEMISTRY=CaFe^2+^Si_2_O_6_
##LOCALITY=Rio Marina, Elba, Italy
##OWNER=RRUFF
##SOURCE=University of Arizona Mineral Museum
##DESCRIPTION=Radial aggregate of green thin bladed crystals
##STATUS=The identification of this mineral has been confirmed by X-ray diffraction and chemical analysis
##URL=rruff.info/R060040
##MEASURED CHEMISTRY=Ca_1.00_(Fe^2+^_0.89_Mg_0.09_Mn_0.02_)_Î£=1_Si_2.00_O_6_
##PIN_ID=M00921
##ORIENTATION=Laser parallel to -b* (0 -1 0). Fiducial mark perpendicular to laser is parallel to c [0 0 1]
262.4900, 18987.00
263.7050, 19030.00
264.9210, 19137.00
266.1360, 19207.00
267.3520, 19178.00
268.5670, 19194.00
269.7820, 19150.00
270.9960, 19369.00
272.2110, 19510.00
273.4250, 19634.00
274.6400, 19574.00
275.8540, 19598.00
277.0680, 19654.00
278.2810, 19633.00
279.4950, 19693.00
280.7090, 19711.00
281.9220, 19569.00
283.1350, 19728.00
284.3480, 19866.00
285.5610, 19734.00
286.7730, 20058.00
287.9860, 20140.00
289.1980, 20075.00
290.4100, 20095.00
291.6220, 20337.00
292.8340, 20251.00
294.0460, 20368.00
295.2570, 20698.00
296.4690, 20763.00
297.6800, 21104.00
298.8910, 21147.00
300.1020, 21344.00
301.3120, 21593.00
302.5230, 21724.00
303.7330, 21925.00
304.9440, 21837.00
306.1540, 22096.00
307.3630, 22049.00
308.5730, 22143.00
309.7830, 22190.00
310.9920, 22047.00
312.2010, 21760.00
313.4100, 21705.00
314.6190, 21770.00
315.8280, 21577.00
317.0370, 21656.00
318.2450, 21609.00
319.4530, 21695.00
320.6610, 21623.00
321.8690, 21826.00
323.0770, 21869.00
324.2850, 21841.00
325.4920, 22016.00
326.6990, 22100.00
327.9060, 22101.00
329.1130, 22205.00
330.3200, 22384.00
331.5270, 22275.00
332.7330, 22397.00
333.9390, 22573.00
335.1450, 22193.00
336.3510, 22431.00
337.5570, 22204.00
338.7630, 22380.00
339.9680, 22276.00
341.1740, 22190.00
342.3790, 22169.00
343.5840, 21801.00
344.7890, 21689.00
345.9930, 21692.00
347.1980, 21814.00
348.4020, 21482.00
349.6060, 21575.00
350.8100, 21372.00
352.0140, 21347.00
353.2180, 21347.00
354.4210, 21513.00
355.6250, 21398.00
356.8280, 21574.00
358.0310, 21493.00
359.2340, 21534.00
360.4360, 21789.00
361.6390, 21872.00
362.8410, 21882.00
364.0430, 22323.00
365.2450, 22426.00
366.4470, 22481.00
367.6490, 22666.00
368.8510, 22984.00
370.0520, 23439.00
371.2530, 23375.00
372.4540, 23557.00
373.6550, 23774.00
374.8560, 23719.00
376.0560, 23786.00
377.2570, 23843.00
378.4570, 23647.00
379.6570, 23459.00
380.8570, 23126.00
382.0570, 22825.00
383.2560, 22916.00
384.4560, 22605.00
385.6550, 22108.00
386.8540, 22096.00
388.0530, 21960.00
389.2520, 22167.00
390.4510, 21980.00
391.6490, 21949.00
392.8470, 21787.00
394.0450, 21957.00
395.2430, 21793.00
396.4410, 21866.00
397.6390, 21862.00
398.8360, 21723.00
400.0340, 21885.00
401.2310, 21738.00
402.4280, 21884.00
403.6250, 21901.00
404.8210, 21775.00
406.0180, 21898.00
407.2140, 21914.00
408.4100, 21983.00
409.6060, 22111.00
410.8020, 22049.00
411.9980, 21959.00
413.1930, 21901.00
414.3890, 22128.00
415.5840, 22084.00
416.7790, 22003.00
417.9740, 22229.00
419.1680, 22077.00
420.3630, 22001.00
421.5570, 22098.00
422.7510, 22258.00
423.9450, 22214.00
425.1390, 22366.00
426.3330, 22279.00
427.5270, 22318.00
428.7200, 22321.00
429.9130, 22404.00
431.1060, 22436.00
432.2990, 22401.00
433.4920, 22542.00
434.6840, 22374.00
435.8770, 22372.00
437.0690, 22553.00
438.2610, 22593.00
439.4530, 22528.00
440.6450, 22453.00
441.8360, 22585.00
443.0280, 22670.00
444.2190, 22742.00
445.4100, 22767.00
446.6010, 22801.00
447.7920, 22709.00
448.9820, 22720.00
450.1730, 22771.00
451.3630, 22752.00
452.5530, 22843.00
453.7430, 22764.00
454.9330, 22959.00
456.1230, 22906.00
457.3120, 23010.00
458.5010, 22976.00
459.6910, 22995.00
460.8800, 22872.00
462.0680, 22938.00
463.2570, 22973.00
464.4460, 23067.00
465.6340, 23196.00
466.8220, 23119.00
468.0100, 23044.00
469.1980, 22776.00
470.3860, 23088.00
471.5730, 23301.00
472.7600, 23246.00
473.9480, 23220.00
475.1350, 23255.00
476.3210, 23308.00
477.5080, 23321.00
478.6950, 23313.00
479.8810, 23357.00
481.0670, 23335.00
482.2530, 23459.00
483.4390, 23692.00
484.6250, 23570.00
485.8100, 23772.00
486.9960, 23498.00
488.1810, 23870.00
489.3660, 23834.00
490.5510, 23966.00
491.7360, 23901.00
492.9200, 23882.00
494.1050, 24165.00
495.2890, 23823.00
496.4730, 23977.00
497.6570, 23945.00
498.8400, 23916.00
500.0240, 23819.00
501.2070, 23800.00
502.3910, 24095.00
503.5740, 23992.00
504.7570, 23988.00
505.9400, 24009.00
507.1220, 24028.00
508.3050, 24064.00
509.4870, 24052.00
510.6690, 24007.00
511.8510, 24079.00
513.0330, 24156.00
514.2140, 24143.00
515.3960, 24150.00
516.5770, 24302.00
517.7580, 24216.00
518.9390, 24494.00
520.1200, 24267.00
521.3010, 24316.00
522.4810, 24272.00
523.6610, 24218.00
524.8420, 24193.00
526.0220, 24396.00
527.2010, 24495.00
528.3810, 24423.00
529.5610, 24541.00
530.7400, 24387.00
531.9190, 24574.00
533.0980, 24478.00
534.2770, 24614.00
535.4560, 24545.00
536.6340, 24580.00
537.8120, 24655.00
538.9910, 24497.00
540.1690, 24993.00
541.3460, 24597.00
542.5240, 24711.00
543.7020, 25018.00
544.8790, 24919.00
546.0560, 25044.00
547.2330, 25146.00
548.4100, 25147.00
549.5870, 25266.00
550.7630, 25032.00
551.9400, 25131.00
553.1160, 25126.00
554.2920, 25051.00
555.4680, 25440.00
556.6440, 25198.00
557.8190, 25044.00
558.9950, 25019.00
560.1700, 25361.00
561.3450, 25115.00
562.5200, 25227.00
563.6950, 25111.00
564.8690, 25210.00
566.0440, 25322.00
567.2180, 25244.00
568.3920, 25262.00
569.5660, 25293.00
570.7400, 25330.00
571.9130, 25256.00
573.0870, 25330.00
574.2600, 25386.00
575.4330, 25516.00
576.6060, 25427.00
577.7790, 25304.00
578.9520, 25274.00
580.1240, 25398.00
581.2960, 25409.00
582.4690, 25442.00
583.6410, 25690.00
584.8120, 25338.00
585.9840, 25668.00
587.1560, 25657.00
588.3270, 25730.00
589.4980, 25545.00
590.6690, 25365.00
591.8400, 25680.00
593.0110, 25552.00
594.1810, 25686.00
595.3510, 25719.00
596.5220, 25773.00
597.6920, 25889.00
598.8610, 25787.00
600.0310, 25631.00
601.2010, 25830.00
602.3700, 25960.00
603.5390, 25967.00
604.7080, 25954.00
605.8770, 26054.00
607.0460, 26070.00
608.2140, 26085.00
609.3830, 26076.00
610.5510, 26045.00
611.7190, 26229.00
612.8870, 26225.00
614.0550, 26389.00
615.2220, 26153.00
616.3900, 26196.00
617.5570, 26388.00
618.7240, 26524.00
619.8910, 26508.00
621.0580, 26445.00
622.2240, 26688.00
623.3910, 26694.00
624.5570, 26565.00
625.7230, 26618.00
626.8890, 26853.00
628.0550, 26957.00
629.2200, 26884.00
630.3860, 26994.00
631.5510, 26949.00
632.7160, 27243.00
633.8810, 27183.00
635.0460, 27157.00
636.2100, 27262.00
637.3750, 27427.00
638.5390, 27601.00
639.7030, 27624.00
640.8670, 28036.00
642.0310, 28381.00
643.1950, 28207.00
644.3580, 28435.00
645.5210, 28848.00
646.6850, 29438.00
647.8480, 29781.00
649.0100, 30512.00
650.1730, 31216.00
651.3350, 32128.00
652.4980, 33122.00
653.6600, 33848.00
654.8220, 34760.00
655.9840, 35685.00
657.1450, 36589.00
658.3070, 37123.00
659.4680, 37463.00
660.6300, 37294.00
661.7910, 36773.00
662.9510, 35608.00
664.1120, 34395.00
665.2730, 33407.00
666.4330, 32325.00
667.5930, 31459.00
668.7530, 30725.00
669.9130, 29700.00
671.0730, 29457.00
672.2320, 29017.00
673.3920, 28897.00
674.5510, 28728.00
675.7100, 28266.00
676.8690, 28348.00
678.0280, 28150.00
679.1860, 28129.00
680.3450, 27865.00
681.5030, 28070.00
682.6610, 28113.00
683.8190, 27864.00
684.9770, 27761.00
686.1340, 27809.00
687.2920, 28022.00
688.4490, 27906.00
689.6060, 27920.00
690.7630, 27647.00
691.9200, 27898.00
693.0760, 27786.00
694.2330, 27869.00
695.3890, 28171.00
696.5450, 27804.00
697.7010, 27819.00
698.8570, 27714.00
700.0130, 28102.00
701.1680, 28003.00
702.3230, 27998.00
703.4780, 28228.00
704.6330, 27936.00
705.7880, 28135.00
706.9430, 28089.00
708.0970, 28168.00
709.2520, 28044.00
710.4060, 27920.00
711.5600, 28116.00
712.7140, 28141.00
713.8670, 28155.00
715.0210, 27862.00
716.1740, 28196.00
717.3270, 28289.00
718.4800, 28179.00
719.6330, 28149.00
720.7860, 28269.00
721.9380, 28209.00
723.0910, 28367.00
724.2430, 28203.00
725.3950, 28400.00
726.5470, 28272.00
727.6980, 28464.00
728.8500, 28254.00
730.0010, 28541.00
731.1530, 28592.00
732.3040, 28555.00
733.4550, 28459.00
734.6050, 28620.00
735.7560, 28727.00
736.9060, 28409.00
738.0560, 28777.00
739.2060, 28739.00
740.3560, 28626.00
741.5060, 28696.00
742.6560, 28625.00
743.8050, 29061.00
744.9540, 28954.00
746.1030, 28756.00
747.2520, 28991.00
748.4010, 29146.00
749.5500, 29124.00
750.6980, 29059.00
751.8460, 29134.00
752.9950, 29008.00
754.1420, 29244.00
755.2900, 29138.00
756.4380, 29359.00
757.5850, 29195.00
758.7330, 29244.00
759.8800, 29213.00
761.0270, 29362.00
762.1730, 29345.00
763.3200, 29403.00
764.4670, 29159.00
765.6130, 29293.00
766.7590, 29239.00
767.9050, 29598.00
769.0510, 29467.00
770.1960, 29323.00
771.3420, 29532.00
772.4870, 29559.00
773.6320, 29596.00
774.7770, 29530.00
775.9220, 29618.00
777.0670, 29459.00
778.2110, 29504.00
779.3560, 29734.00
780.5000, 29553.00
781.6440, 29814.00
782.7880, 29708.00
783.9320, 29760.00
785.0750, 29749.00
786.2180, 29710.00
787.3620, 29643.00
788.5050, 29759.00
789.6480, 29805.00
790.7900, 29894.00
791.9330, 29767.00
793.0750, 29979.00
794.2170, 30112.00
795.3590, 29929.00
796.5010, 30158.00
797.6430, 30051.00
798.7850, 30107.00
799.9260, 30101.00
801.0670, 30029.00
802.2080, 30071.00
803.3490, 30006.00
804.4900, 30259.00
805.6310, 30250.00
806.7710, 30245.00
807.9110, 30042.00
809.0510, 30609.00
810.1910, 30437.00
811.3310, 30503.00
812.4710, 30491.00
813.6100, 30601.00
814.7490, 30504.00
815.8880, 30378.00
817.0270, 30438.00
818.1660, 30667.00
819.3050, 30621.00
820.4430, 30525.00
821.5820, 30567.00
822.7200, 30670.00
823.8580, 30824.00
824.9950, 30737.00
826.1330, 30762.00
827.2710, 30841.00
828.4080, 30565.00
829.5450, 30873.00
830.6820, 30916.00
831.8190, 30984.00
832.9560, 31095.00
834.0920, 31034.00
835.2280, 30704.00
836.3650, 31002.00
837.5010, 30932.00
838.6360, 31235.00
839.7720, 31144.00
840.9080, 31121.00
842.0430, 31256.00
843.1780, 31416.00
844.3130, 31525.00
845.4480, 31714.00
846.5830, 31872.00
847.7170, 32144.00
848.8520, 31962.00
849.9860, 32239.00
851.1200, 32389.00
852.2540, 32530.00
853.3870, 32423.00
854.5210, 32552.00
855.6540, 32492.00
856.7880, 32234.00
857.9210, 32242.00
859.0540, 32064.00
860.1860, 31940.00
861.3190, 31800.00
862.4510, 31755.00
863.5840, 31839.00
864.7160, 31919.00
865.8480, 32018.00
866.9790, 32054.00
868.1110, 32027.00
869.2420, 31859.00
870.3740, 31983.00
871.5050, 31738.00
872.6360, 31998.00
873.7660, 32022.00
874.8970, 32243.00
876.0280, 32143.00
877.1580, 32354.00
878.2880, 32153.00
879.4180, 32197.00
880.5480, 32200.00
881.6770, 32458.00
882.8070, 32198.00
883.9360, 32251.00
885.0650, 32316.00
886.1940, 32547.00
887.3230, 32295.00
888.4520, 32612.00
889.5800, 32166.00
890.7090, 32241.00
891.8370, 32452.00
892.9650, 32391.00
894.0930, 32507.00
895.2200, 32651.00
896.3480, 32671.00
897.4750, 32409.00
898.6020, 32718.00
899.7290, 32756.00
900.8560, 32764.00
901.9830, 32759.00
903.1090, 32614.00
904.2360, 32591.00
905.3620, 32667.00
906.4880, 32878.00
907.6140, 32596.00
908.7400, 33004.00
909.8650, 32855.00
910.9900, 32824.00
912.1160, 32984.00
913.2410, 32687.00
914.3660, 33025.00
915.4900, 32821.00
916.6150, 32892.00
917.7390, 32882.00
918.8640, 32745.00
919.9880, 32957.00
921.1120, 32982.00
922.2350, 33197.00
923.3590, 33091.00
924.4820, 33505.00
925.6060, 33042.00
926.7290, 33355.00
927.8520, 33050.00
928.9740, 33317.00
930.0970, 33483.00
931.2190, 33358.00
932.3420, 33608.00
933.4640, 33376.00
934.5860, 33427.00
935.7080, 33353.00
936.8290, 33245.00
937.9510, 33412.00
939.0720, 33436.00
940.1930, 33534.00
941.3140, 33497.00
942.4350, 33478.00
943.5560, 33522.00
944.6760, 33530.00
945.7960, 33896.00
946.9170, 33556.00
948.0370, 33464.00
949.1560, 33800.00
950.2760, 33667.00
951.3960, 33894.00
952.5150, 34082.00
953.6340, 33927.00
954.7530, 33845.00
955.8720, 34015.00
956.9910, 34103.00
958.1090, 34113.00
959.2280, 33981.00
960.3460, 34029.00
961.4640, 33904.00
962.5820, 34369.00
963.6990, 34230.00
964.8170, 34073.00
965.9340, 34079.00
967.0510, 34196.00
968.1690, 34106.00
969.2850, 34189.00
970.4020, 34353.00
971.5190, 34288.00
972.6350, 34173.00
973.7510, 34355.00
974.8670, 34334.00
975.9830, 34428.00
977.0990, 34731.00
978.2150, 34620.00
979.3300, 34618.00
980.4450, 34917.00
981.5600, 34479.00
982.6750, 34869.00
983.7900, 34971.00
984.9050, 35154.00
986.0190, 34939.00
987.1340, 35177.00
988.2480, 35461.00
989.3620, 35343.00
990.4750, 35495.00
991.5890, 35500.00
992.7020, 35568.00
993.8160, 35912.00
994.9290, 36036.00
996.0420, 36411.00
997.1550, 36584.00
998.2670, 37170.00
999.3800, 37494.00
1000.492, 38840.00
1001.604, 39465.00
1002.716, 39659.00
1003.828, 41126.00
1004.940, 42397.00
1006.051, 44389.00
1007.163, 45992.00
1008.274, 47939.00
1009.385, 49664.00
1010.496, 50667.00
1011.606, 51411.00
1012.717, 50508.00
1013.827, 49305.00
1014.937, 47359.00
1016.047, 45093.00
1017.157, 43160.00
1018.267, 41635.00
1019.377, 40468.00
1020.486, 39517.00
1021.595, 38806.00
1022.704, 38295.00
1023.813, 38207.00
1024.922, 37702.00
1026.030, 37661.00
1027.139, 37418.00
1028.247, 37155.00
1029.355, 37439.00
1030.463, 37237.00
1031.571, 36985.00
1032.678, 37193.00
1033.786, 36991.00
1034.893, 36830.00
1036.000, 36973.00
1037.107, 36875.00
1038.214, 36954.00
1039.321, 36681.00
1040.427, 36689.00
1041.533, 36756.00
1042.639, 36760.00
1043.745, 36432.00
1044.851, 36534.00
1045.957, 36531.00
1047.062, 36615.00
1048.168, 36684.00
1049.273, 36649.00
1050.378, 36569.00
1051.482, 36562.00
1052.587, 36372.00
1053.692, 36675.00
1054.796, 36275.00
1055.900, 36707.00
1057.004, 36649.00
1058.108, 36687.00
1059.212, 36728.00
1060.315, 36867.00
1061.418, 36618.00
1062.522, 36698.00
1063.625, 36954.00
1064.728, 36801.00
1065.830, 36745.00
1066.933, 36743.00
1068.035, 36689.00
1069.137, 37019.00
1070.239, 36936.00
1071.341, 37326.00
1072.443, 36997.00
1073.545, 36859.00
1074.646, 36859.00
1075.747, 37284.00
1076.848, 37146.00
1077.949, 37108.00
1079.050, 37180.00
1080.150, 37073.00
1081.251, 37402.00
1082.351, 37319.00
1083.451, 37149.00
1084.551, 37216.00
1085.651, 37452.00
1086.750, 37372.00
1087.850, 37215.00
1088.949, 37327.00
1090.048, 37639.00
1091.147, 37256.00
1092.246, 37368.00
1093.345, 37595.00
1094.443, 37227.00
1095.541, 37110.00
1096.639, 37537.00
1097.737, 37599.00
1098.835, 37536.00
1099.933, 37576.00
1101.030, 37371.00
1102.128, 37668.00
1103.225, 37850.00
1104.322, 37731.00
1105.419, 37924.00
1106.515, 37836.00
1107.612, 37623.00
1108.708, 38154.00
1109.804, 37599.00
1110.900, 37696.00
1111.996, 37722.00
1113.092, 37962.00
1114.187, 38033.00
1115.283, 38105.00
1116.378, 38130.00
1117.473, 37903.00
1118.568, 37854.00
1119.662, 38078.00
1120.757, 38147.00
1121.851, 38091.00
1122.946, 38051.00
1124.040, 38101.00
1125.134, 38227.00
1126.227, 38348.00
1127.321, 38170.00
1128.414, 38173.00
1129.508, 38167.00
1130.601, 38477.00
1131.693, 38307.00
1132.786, 38431.00
1133.879, 38408.00
1134.971, 38450.00
1136.064, 38585.00
1137.156, 38696.00
1138.248, 38591.00
1139.339, 38481.00
1140.431, 38674.00
1141.522, 38875.00
1142.614, 38613.00
1143.705, 38735.00
1144.796, 38644.00
1145.887, 38762.00
1146.977, 38579.00
1148.068, 38733.00
1149.158, 38788.00
1150.248, 38811.00
1151.338, 38979.00
1152.428, 38867.00
1153.518, 39007.00
1154.607, 38887.00
1155.696, 38918.00
1156.785, 39063.00
1157.874, 39166.00
1158.963, 39179.00
1160.052, 39308.00
1161.141, 39024.00
1162.229, 39121.00
1163.317, 39124.00
1164.405, 39373.00
1165.493, 39209.00
1166.581, 39236.00
1167.668, 38959.00
1168.756, 39291.00
1169.843, 39402.00
1170.930, 39393.00
1172.017, 39390.00
1173.103, 39584.00
1174.190, 39473.00
1175.276, 39599.00
1176.363, 39593.00
1177.449, 39526.00
1178.535, 39332.00
1179.620, 39455.00
1180.706, 39751.00
1181.791, 39699.00
1182.877, 39697.00
1183.962, 39636.00
1185.047, 39654.00
1186.131, 39809.00
1187.216, 39673.00
1188.300, 40065.00
1189.385, 39724.00
1190.469, 39817.00
1191.553, 40047.00
1192.637, 40018.00
1193.720, 39939.00
1194.804, 39984.00
1195.887, 40117.00
1196.970, 40375.00
1198.053, 40092.00
1199.136, 40489.00
1200.219, 40132.00
1201.301, 40186.00
1202.383, 40237.00
1203.465, 40382.00
1204.547, 40103.00
1205.629, 40258.00
1206.711, 40163.00
1207.792, 40319.00
1208.874, 40224.00
1209.955, 40298.00
1211.036, 40472.00
1212.117, 40547.00
1213.198, 40577.00
1214.278, 40770.00
1215.359, 40821.00
1216.439, 40564.00
1217.519, 40601.00
1218.599, 40772.00
1219.678, 40692.00
1220.758, 40996.00
1221.837, 40831.00
1222.917, 40816.00
1223.996, 40800.00
1225.075, 40807.00
1226.153, 40730.00
1227.232, 41038.00
1228.310, 41037.00
1229.389, 41351.00
1230.467, 41134.00
1231.545, 41102.00
1232.622, 41137.00
1233.700, 41243.00
1234.777, 41443.00
1235.855, 41243.00
1236.932, 41280.00
1238.009, 41281.00
1239.086, 41507.00
1240.162, 41600.00
1241.239, 41312.00
1242.315, 41544.00
1243.391, 41510.00
1244.467, 41654.00
1245.543, 41420.00
1246.619, 41778.00
1247.694, 41671.00
1248.769, 41390.00
1249.844, 41728.00
1250.919, 41673.00
1251.994, 41707.00
1253.069, 41681.00
1254.144, 41762.00
1255.218, 41917.00
1256.292, 41944.00
1257.366, 41972.00
1258.440, 42029.00
1259.514, 42049.00
1260.587, 42243.00
1261.661, 41888.00
1262.734, 42056.00
1263.807, 42003.00
1264.880, 41526.00
1265.952, 42070.00
1267.025, 42264.00
1268.097, 42404.00
1269.170, 42213.00
1270.242, 41850.00
1271.314, 42341.00
1272.385, 42427.00
1273.457, 42384.00
1274.528, 42393.00
1275.600, 42699.00
1276.671, 42568.00
1277.742, 42809.00
1278.812, 42570.00
1279.883, 42434.00
1280.954, 42562.00
1282.024, 42588.00
1283.094, 42466.00
1284.164, 42587.00
1285.234, 42591.00
1286.303, 42814.00
1287.373, 42557.00
1288.442, 42620.00
1289.511, 42756.00
1290.580, 42758.00
1291.649, 42720.00
1292.718, 42852.00
1293.786, 42551.00
1294.855, 42799.00
1295.923, 42869.00
1296.991, 42888.00
1298.059, 42982.00
1299.126, 42897.00
1300.194, 42869.00
1301.261, 43252.00
1302.328, 43068.00
1303.395, 43076.00
1304.462, 43105.00
1305.529, 43206.00
1306.596, 43123.00
1307.662, 43407.00
1308.728, 43323.00
1309.794, 43586.00
1310.860, 43611.00
1311.926, 43414.00
1312.991, 43544.00
1314.057, 43830.00
1315.122, 43682.00
1316.187, 44008.00
1317.252, 43733.00
1318.317, 43788.00
1319.381, 44085.00
1320.446, 44070.00
1321.510, 43799.00
1322.574, 43914.00
1323.638, 43873.00
1324.702, 43807.00
1325.766, 44023.00
1326.829, 44000.00
1327.892, 44079.00
1328.956, 43792.00
1330.019, 44027.00
1331.081, 44255.00
1332.144, 43934.00
1333.206, 44066.00
1334.269, 44212.00
1335.331, 44112.00
1336.393, 44455.00
1337.455, 44087.00
1338.516, 44258.00
1339.578, 44088.00
1340.639, 44268.00
1341.701, 44429.00
1342.762, 44414.00
1343.822, 44433.00
1344.883, 44377.00
1345.944, 44382.00
1347.004, 44419.00
1348.064, 44603.00
1349.124, 44490.00
1350.184, 44505.00
1351.244, 44592.00
1352.304, 44851.00
1353.363, 44480.00
1354.422, 44534.00
1355.481, 44428.00
1356.540, 44756.00
1357.599, 44536.00
1358.657, 44487.00
1359.716, 44892.00
1360.774, 44916.00
1361.832, 45014.00
1362.890, 44789.00
1363.948, 45224.00
1365.006, 44766.00
1366.063, 45189.00
1367.120, 44929.00
1368.178, 45112.00
1369.234, 45068.00
1370.291, 44941.01
1371.348, 45100.43
1372.404, 45203.35
1373.461, 45252.84
1374.517, 45088.79
1375.573, 45200.45
1376.629, 45201.62
1377.684, 45198.23
1378.740, 45348.70
1379.795, 45215.67
1380.850, 45363.67
1381.905, 45399.49
1382.960, 45486.65
1384.015, 45462.64
1385.070, 45472.96
1386.124, 45594.47
1387.178, 45578.00
1388.232, 45634.00
1389.286, 45625.00
1390.340, 45632.00
1391.393, 45824.00
1392.447, 45412.00
1393.500, 45633.00
1394.553, 45663.00
1395.606, 45685.00
1396.659, 45726.00
1397.711, 45739.00
1398.764, 45646.00
1399.816, 45801.00
1400.868, 45792.00
1401.920, 45999.00
1402.972, 45744.00
1404.023, 45975.00
1405.075, 45932.00
1406.126, 45693.00
1407.177, 45908.00
1408.228, 45929.00
1409.279, 45850.00
1410.330, 45939.00
1411.380, 46004.00
1412.431, 46292.00
1413.481, 46108.00
1414.531, 46179.00
1415.580, 46394.00
1416.630, 46419.00
1417.680, 46230.00
1418.729, 46351.00
1419.778, 46370.00
1420.827, 46275.00
1421.876, 46414.00
1422.925, 46693.00
1423.973, 46313.00
1425.022, 46585.00
1426.070, 46176.00
1427.118, 46427.00
1428.166, 46298.00
1429.214, 46725.00
1430.261, 46717.00
1431.309, 46599.00
1432.356, 46757.00
1433.403, 46774.00
1434.450, 46463.00
1435.497, 46557.00
1436.543, 46845.00
1437.590, 46760.00
1438.636, 46867.00
1439.682, 46993.00
1440.728, 47033.00
1441.774, 46900.00
1442.819, 46786.00
1443.865, 47306.00
1444.910, 46982.00
1445.955, 47163.00
1447.000, 47042.00
1448.045, 47122.00
1449.090, 47417.00
1450.134, 47408.00
1451.178, 47259.00
1452.223, 47135.00
1453.267, 47463.00
1454.310, 47512.00
1455.354, 47532.00
1456.398, 47649.00
1457.441, 47763.00
1458.484, 47651.00
1459.527, 47569.00
1460.570, 47587.00
1461.613, 47881.00
1462.655, 47526.00
1463.698, 47623.00
1464.740, 47527.00
1465.782, 47716.00
1466.824, 47616.00
1467.866, 47570.00
1468.907, 47734.00
1469.948, 47948.00
1470.990, 47603.00
1472.031, 47734.00
1473.072, 47890.00
1474.112, 47657.00
1475.153, 47713.00
1476.194, 47809.00
1477.234, 47867.00
1478.274, 47730.00
1479.314, 47908.00
1480.354, 48069.00
1481.393, 48021.00
1482.433, 48297.00
1483.472, 48441.00
1484.511, 48250.00
1485.550, 47957.00
1486.589, 48479.00
1487.628, 48278.00
1488.666, 48167.00
1489.704, 48409.00
1490.743, 48153.00
1491.781, 48189.00
1492.819, 48376.00
1493.856, 48388.00
1494.894, 48539.00
1495.931, 48668.00
1496.968, 48439.00
1498.005, 48388.00
1499.042, 48772.00
1500.079, 48816.00
1501.115, 48960.00
1502.152, 48886.00
1503.188, 48565.00
1504.224, 48730.00
1505.260, 48810.00
1506.296, 48744.00
1507.331, 48821.00
1508.367, 49059.00
1509.402, 48857.00
1510.437, 48947.00
1511.472, 48983.00
1512.507, 49164.00
1513.541, 48974.00
1514.576, 49152.00
1515.610, 49080.00
1516.644, 49296.00
1517.678, 49063.00
1518.712, 49388.00
1519.746, 48895.00
1520.779, 49095.00
1521.813, 49342.00
1522.846, 49435.00
1523.879, 49392.00
1524.912, 49180.00
1525.944, 49116.00
1526.977, 49433.00
1528.009, 49301.00
1529.041, 49375.00
1530.073, 49740.00
1531.105, 49389.00
1532.137, 49565.00
1533.168, 49482.00
1534.200, 49611.00
1535.231, 49751.00
1536.262, 49903.00
1537.293, 49660.00
1538.324, 49919.00
1539.354, 49844.00
1540.385, 49844.00
1541.415, 49880.00
1542.445, 49822.00
1543.475, 49851.00
1544.505, 49696.00
1545.534, 49673.00
1546.564, 49824.00
1547.593, 49847.00
1548.622, 50153.00
1549.651, 49815.00
1550.680, 49883.00
1551.708, 50088.00
1552.737, 49575.00
1553.765, 50030.00
1554.793, 49854.00
1555.821, 50098.00
1556.849, 50119.00
1557.877, 50164.00
1558.904, 50339.00
1559.932, 50268.00
1560.959, 50176.00
1561.986, 50098.00
1563.013, 49997.00
1564.039, 50228.00
1565.066, 50263.00
1566.092, 50327.00
1567.119, 50269.00
1568.145, 50283.00
1569.170, 50222.00
1570.196, 50287.00
1571.222, 50319.00
1572.247, 50360.00
1573.272, 50531.00
1574.297, 50453.00
1575.322, 50386.00
##END=



