##NAMES=Heulandite-Ca
##RRUFFID=R060465
##IDEAL CHEMISTRY=(Ca,Na,K)_5_(Si_27_Al_9_)O_72_&#183;26H_2_O
##LOCALITY=Garrawilla, near Gunnadah, New South Wales, Australia
##OWNER=RRUFF
##SOURCE=Michael Scott
##DESCRIPTION=Orange fan of platy crystals
##STATUS=The identification of this mineral has been confirmed by X-ray diffraction and chemical analysis
##URL=rruff.info/R060465
##MEASURED CHEMISTRY=(Ca_0.66_Na_0.24_K_0.10_)_5_(Si_0.77_Al_0.23_)_36_O_72_Â·24H_2_O
##PIN_ID=M01415
##ORIENTATION=Laser parallel to a* (1 0 0). Fiducial mark perpendicular to laser is parallel to b [0 1 0]
223.8660, 23593.00
225.0920, 23679.00
226.3190, 23398.00
227.5450, 23492.00
228.7700, 23524.00
229.9960, 23463.00
231.2210, 23387.00
232.4460, 23458.00
233.6710, 23630.00
234.8960, 23643.00
236.1210, 23863.00
237.3450, 24048.00
238.5690, 24211.00
239.7930, 24142.00
241.0170, 24484.00
242.2410, 24526.00
243.4640, 24752.00
244.6870, 25041.00
245.9100, 24863.00
247.1330, 24974.00
248.3560, 25035.00
249.5780, 25092.00
250.8000, 25001.00
252.0230, 25047.00
253.2440, 25053.00
254.4660, 25039.00
255.6880, 25067.00
256.9090, 25022.90
258.1300, 24962.40
259.3510, 24895.28
260.5720, 24697.38
261.7920, 24514.00
263.0130, 24167.00
264.2330, 23836.00
265.4530, 23810.00
266.6730, 23643.00
267.8920, 23669.00
269.1120, 23332.00
270.3310, 23163.00
271.5500, 22975.00
272.7690, 23329.00
273.9880, 22926.00
275.2060, 23123.00
276.4240, 23080.00
277.6430, 23047.00
278.8600, 22940.00
280.0780, 23010.00
281.2960, 22904.00
282.5130, 22849.00
283.7300, 22741.00
284.9470, 22622.00
286.1640, 22612.00
287.3810, 22463.00
288.5970, 22421.00
289.8130, 22432.00
291.0290, 22373.00
292.2450, 22379.00
293.4610, 22294.00
294.6760, 22431.00
295.8910, 22140.00
297.1060, 22190.00
298.3210, 22226.00
299.5360, 22042.00
300.7510, 22076.00
301.9650, 22284.00
303.1790, 22198.00
304.3930, 22201.00
305.6070, 22177.00
306.8200, 22040.00
308.0340, 22101.00
309.2470, 22108.74
310.4600, 22209.00
311.6730, 22269.00
312.8850, 22423.00
314.0980, 22590.00
315.3100, 22722.36
316.5220, 22970.00
317.7340, 23041.00
318.9460, 23317.00
320.1570, 23458.00
321.3690, 23616.00
322.5800, 23681.00
323.7910, 23830.28
325.0010, 23961.00
326.2120, 24074.00
327.4220, 24309.00
328.6330, 24451.00
329.8430, 24373.00
331.0520, 24485.00
332.2620, 24213.00
333.4720, 24410.00
334.6810, 24433.00
335.8900, 24394.00
337.0990, 24589.00
338.3070, 24404.00
339.5160, 24622.00
340.7240, 24714.00
341.9320, 24644.00
343.1400, 24646.00
344.3480, 24548.00
345.5560, 25033.00
346.7630, 25021.00
347.9700, 25313.00
349.1770, 25310.00
350.3840, 25584.00
351.5910, 25919.00
352.7970, 26310.00
354.0040, 26438.00
355.2100, 26851.70
356.4160, 27249.00
357.6220, 27540.00
358.8270, 27940.00
360.0320, 28316.00
361.2380, 28645.00
362.4430, 29411.00
363.6470, 29968.00
364.8520, 30530.00
366.0560, 31068.00
367.2610, 31763.00
368.4650, 32379.00
369.6690, 32877.00
370.8720, 33570.00
372.0760, 34394.00
373.2790, 35140.00
374.4820, 35692.00
375.6850, 36552.00
376.8880, 37546.00
378.0910, 38618.00
379.2930, 39490.00
380.4950, 40615.00
381.6970, 41483.00
382.8990, 42430.00
384.1010, 43557.00
385.3020, 44622.00
386.5040, 45948.75
387.7050, 47439.00
388.9060, 48753.00
390.1060, 50286.00
391.3070, 51756.00
392.5070, 53462.00
393.7080, 54975.00
394.9080, 56221.00
396.1070, 57715.00
397.3070, 58621.00
398.5070, 59983.00
399.7060, 60969.00
400.9050, 61559.00
402.1040, 61871.00
403.3030, 61515.00
404.5010, 61109.00
405.7000, 60879.00
406.8980, 59638.00
408.0960, 58712.00
409.2940, 57085.00
410.4910, 55747.00
411.6890, 54245.00
412.8860, 52385.00
414.0830, 51162.00
415.2800, 49432.00
416.4770, 47726.00
417.6730, 46285.00
418.8690, 44624.00
420.0660, 42985.00
421.2620, 41417.00
422.4570, 39844.00
423.6530, 38507.00
424.8480, 37258.00
426.0440, 35495.00
427.2390, 34448.00
428.4340, 33113.00
429.6280, 31654.00
430.8230, 30671.00
432.0170, 29564.00
433.2110, 28734.00
434.4050, 28098.00
435.5990, 27543.00
436.7930, 26653.00
437.9860, 26218.00
439.1800, 25804.00
440.3730, 25450.00
441.5660, 25160.00
442.7580, 24759.00
443.9510, 24708.00
445.1430, 24546.00
446.3350, 24684.00
447.5270, 24274.00
448.7190, 24458.00
449.9110, 24580.00
451.1020, 24688.00
452.2930, 25019.00
453.4850, 25386.00
454.6750, 25730.00
455.8660, 26234.79
457.0570, 26784.91
458.2470, 27426.00
459.4370, 28013.00
460.6270, 28913.00
461.8170, 29490.00
463.0070, 30130.00
464.1960, 31050.00
465.3850, 31495.00
466.5750, 32260.00
467.7630, 32782.00
468.9520, 33570.00
470.1410, 34557.00
471.3290, 35252.00
472.5170, 36116.00
473.7050, 37468.00
474.8930, 38922.00
476.0810, 40535.00
477.2680, 42410.00
478.4560, 43858.00
479.6430, 45493.00
480.8300, 46695.00
482.0160, 47892.00
483.2030, 48334.00
484.3890, 48347.00
485.5760, 47772.00
486.7620, 46562.00
487.9480, 45121.00
489.1330, 42884.00
490.3190, 40833.00
491.5040, 38358.00
492.6890, 35803.00
493.8740, 33622.00
495.0590, 31486.00
496.2440, 29514.00
497.4280, 27887.00
498.6120, 26293.00
499.7960, 25185.00
500.9800, 24153.00
502.1640, 23217.00
503.3470, 22392.00
504.5310, 21966.00
505.7140, 21201.00
506.8970, 20898.00
508.0800, 20429.00
509.2620, 20093.00
510.4450, 19930.00
511.6270, 19740.00
512.8090, 19350.00
513.9910, 19179.00
515.1730, 19109.00
516.3550, 19022.00
517.5360, 18708.00
518.7170, 18752.00
519.8980, 18559.00
521.0790, 18291.00
522.2600, 18107.00
523.4400, 18052.00
524.6210, 18119.00
525.8010, 17901.00
526.9810, 17816.00
528.1610, 17725.00
529.3400, 17635.00
530.5200, 17582.00
531.6990, 17452.20
532.8780, 17488.00
534.0570, 17317.00
535.2360, 17288.00
536.4140, 17456.00
537.5930, 17319.00
538.7710, 17362.00
539.9490, 17139.00
541.1270, 17316.00
542.3040, 17239.00
543.4820, 17099.00
544.6590, 17003.00
545.8360, 17054.00
547.0130, 17102.00
548.1900, 16940.00
549.3670, 17016.00
550.5430, 17122.00
551.7190, 17016.00
552.8960, 16954.00
554.0710, 17000.00
555.2470, 16867.00
556.4230, 16966.00
557.5980, 16989.00
558.7730, 16957.00
559.9480, 17019.00
561.1230, 16869.00
562.2980, 16859.00
563.4720, 16934.00
564.6470, 17015.00
565.8210, 16991.00
566.9950, 17085.00
568.1690, 17047.00
569.3420, 17149.00
570.5160, 17065.00
571.6890, 17177.00
572.8620, 17313.00
574.0350, 17282.00
575.2080, 17236.00
576.3800, 17306.00
577.5530, 17548.00
578.7250, 17321.00
579.8970, 17549.00
581.0690, 17768.00
582.2410, 17776.00
583.4120, 18023.00
584.5830, 17975.00
585.7550, 18204.00
586.9260, 18246.00
588.0960, 18424.00
589.2670, 18761.00
590.4380, 18908.00
591.6080, 19115.00
592.7780, 19233.00
593.9480, 19511.00
595.1180, 19927.00
596.2870, 20211.00
597.4570, 20417.00
598.6260, 20678.00
599.7950, 20864.00
600.9640, 21499.00
602.1330, 21931.00
603.3010, 22319.00
604.4700, 22757.00
605.6380, 22987.00
606.8060, 23145.00
607.9740, 23490.00
609.1420, 23679.00
610.3090, 23895.00
611.4760, 23831.54
612.6440, 23508.00
613.8110, 23458.00
614.9770, 23133.00
616.1440, 22719.00
617.3110, 22302.00
618.4770, 22001.00
619.6430, 21523.00
620.8090, 21097.00
621.9750, 20770.00
623.1400, 20517.00
624.3060, 20040.00
625.4710, 19841.00
626.6360, 19601.00
627.8010, 19345.00
628.9660, 19062.00
630.1300, 18693.00
631.2950, 18595.00
632.4590, 18501.00
633.6230, 18276.00
634.7870, 18266.00
635.9510, 18255.00
637.1140, 18024.00
638.2780, 17779.00
639.4410, 17735.00
640.6040, 17603.00
641.7670, 17460.35
642.9290, 17399.01
644.0920, 17264.00
645.2540, 17128.00
646.4160, 17125.00
647.5780, 16783.00
648.7400, 16691.00
649.9020, 16646.00
651.0630, 16586.00
652.2250, 16452.00
653.3860, 16496.00
654.5470, 16386.00
655.7080, 16665.00
656.8680, 16480.00
658.0290, 15915.00
659.1890, 16030.00
660.3490, 16057.00
661.5090, 15914.00
662.6690, 15937.00
663.8280, 15821.00
664.9880, 15924.00
666.1470, 15958.00
667.3060, 15952.00
668.4650, 15958.00
669.6240, 15920.36
670.7820, 15896.00
671.9410, 15854.00
673.0990, 15885.00
674.2570, 15933.00
675.4150, 15900.81
676.5720, 15910.00
677.7300, 15865.00
678.8870, 15911.00
680.0450, 15862.00
681.2020, 15903.00
682.3590, 15960.00
683.5150, 15890.00
684.6720, 15949.00
685.8280, 15954.00
686.9840, 16053.00
688.1400, 15962.00
689.2960, 15889.00
690.4520, 16065.00
691.6070, 16049.00
692.7630, 15924.00
693.9180, 16031.00
695.0730, 16021.00
696.2280, 15966.00
697.3820, 16030.00
698.5370, 15992.72
699.6910, 16162.00
700.8450, 15947.00
701.9990, 16238.00
703.1530, 16168.00
704.3070, 16167.00
705.4600, 16242.00
706.6130, 16219.00
707.7660, 16297.00
708.9190, 16299.00
710.0720, 16275.00
711.2250, 16369.00
712.3770, 16414.00
713.5300, 16471.00
714.6820, 16462.81
715.8340, 16272.00
716.9850, 16384.00
718.1370, 16243.00
719.2880, 16140.00
720.4400, 16236.39
721.5910, 16534.00
722.7420, 16365.00
723.8930, 16218.00
725.0430, 16300.00
726.1940, 16145.00
727.3440, 16167.00
728.4940, 16227.00
729.6440, 16109.00
730.7940, 16089.00
731.9430, 16124.00
733.0930, 16263.00
734.2420, 16051.00
735.3910, 16083.00
736.5400, 16168.00
737.6890, 16067.00
738.8370, 16226.00
739.9860, 16057.00
741.1340, 16135.00
742.2820, 16053.00
743.4300, 16150.00
744.5780, 16177.00
745.7250, 16233.00
746.8730, 16171.00
748.0200, 16251.00
749.1670, 16180.00
750.3140, 16246.00
751.4610, 16310.00
752.6070, 16403.00
753.7540, 16325.00
754.9000, 16436.96
756.0460, 16526.00
757.1920, 16604.00
758.3380, 16511.00
759.4830, 16679.00
760.6280, 16865.00
761.7740, 16818.00
762.9190, 17278.00
764.0640, 17121.00
765.2080, 17059.00
766.3530, 17399.00
767.4970, 17248.00
768.6420, 17577.00
769.7860, 17674.00
770.9300, 17716.00
772.0730, 17944.00
773.2170, 18096.00
774.3600, 18150.00
775.5040, 18278.00
776.6470, 18328.00
777.7900, 18514.00
778.9320, 18425.00
780.0750, 18457.00
781.2170, 18682.00
782.3600, 18698.00
783.5020, 18939.00
784.6440, 18780.00
785.7850, 18886.00
786.9270, 18987.00
788.0680, 18791.00
789.2100, 18769.00
790.3510, 18849.00
791.4920, 18622.00
792.6320, 18710.00
793.7730, 18692.00
794.9130, 18611.00
796.0540, 18565.00
797.1940, 18494.21
798.3340, 18371.46
799.4730, 18334.00
800.6130, 18139.00
801.7520, 18038.00
802.8920, 17983.00
804.0310, 17748.00
805.1700, 17773.00
806.3090, 17688.00
807.4470, 17531.00
808.5860, 17422.00
809.7240, 17471.00
810.8620, 17291.00
812.0000, 17368.00
813.1380, 17260.00
814.2750, 17317.00
815.4130, 17351.00
816.5500, 17430.00
817.6870, 17363.00
818.8240, 17487.00
819.9610, 17403.00
821.0980, 17276.00
822.2340, 17239.00
823.3700, 16992.00
824.5070, 16917.00
825.6430, 16774.00
826.7780, 16595.00
827.9140, 16361.00
829.0500, 16378.00
830.1850, 16208.00
831.3200, 16330.00
832.4550, 15948.00
833.5900, 15961.00
834.7250, 16002.00
835.8590, 15831.00
836.9930, 15888.00
838.1280, 15870.00
839.2620, 15900.00
840.3950, 15755.00
841.5290, 15767.00
842.6630, 15602.00
843.7960, 15614.00
844.9290, 15606.30
846.0620, 15745.00
847.1950, 15702.00
848.3280, 15642.00
849.4600, 15808.00
850.5930, 15791.00
851.7250, 15715.00
852.8570, 15692.00
853.9890, 15702.00
855.1210, 15673.00
856.2520, 15886.00
857.3840, 15786.00
858.5150, 15624.00
859.6460, 15900.00
860.7770, 15731.12
861.9080, 15649.00
863.0380, 15718.00
864.1690, 15563.00
865.2990, 15639.00
866.4290, 15736.00
867.5590, 15667.00
868.6890, 15800.00
869.8190, 15644.00
870.9480, 15697.00
872.0770, 15634.00
873.2070, 15569.00
874.3360, 15620.00
875.4640, 15658.09
876.5930, 15658.83
877.7220, 15838.00
878.8500, 15680.00
879.9780, 15734.00
881.1060, 15671.00
882.2340, 15580.00
883.3620, 15650.00
884.4890, 15609.00
885.6170, 15610.00
886.7440, 15770.00
887.8710, 15663.00
888.9980, 15723.00
890.1240, 15881.00
891.2510, 15852.00
892.3770, 15726.00
893.5040, 15763.00
894.6300, 15664.00
895.7560, 15848.00
896.8810, 15742.00
898.0070, 15734.00
899.1330, 15833.00
900.2580, 15806.87
901.3830, 15952.00
902.5080, 15841.00
903.6330, 15880.00
904.7570, 15782.00
905.8820, 15905.00
907.0060, 15956.00
908.1300, 16000.00
909.2540, 15998.00
910.3780, 16077.00
911.5020, 15784.00
912.6250, 15881.00
913.7490, 15839.00
914.8720, 15966.00
915.9950, 15956.00
917.1180, 15991.00
918.2400, 15888.00
919.3630, 16041.00
920.4850, 15941.00
921.6080, 15968.00
922.7300, 15982.00
923.8520, 16074.00
924.9730, 16159.00
926.0950, 16079.00
927.2160, 16021.00
928.3380, 16165.00
929.4590, 16160.00
930.5800, 16222.00
931.7010, 16200.00
932.8210, 16222.01
933.9420, 16242.74
935.0620, 16218.00
936.1820, 16294.00
937.3020, 16254.00
938.4220, 16323.00
939.5420, 16302.00
940.6610, 16350.00
941.7810, 16319.00
942.9000, 16507.00
944.0190, 16350.00
945.1380, 16408.00
946.2570, 16653.00
947.3750, 16557.00
948.4940, 16666.00
949.6120, 16609.00
950.7300, 16712.00
951.8480, 16785.00
952.9660, 16710.00
954.0830, 16916.00
955.2010, 16673.00
956.3180, 16789.00
957.4350, 16955.00
958.5520, 16751.00
959.6690, 16835.00
960.7860, 17081.00
961.9020, 16953.00
963.0190, 16861.00
964.1350, 16954.00
965.2510, 17097.00
966.3670, 17036.00
967.4830, 17083.00
968.5980, 17257.00
969.7140, 17299.00
970.8290, 17356.00
971.9440, 17417.00
973.0590, 17606.00
974.1740, 17561.00
975.2880, 17584.00
976.4030, 17661.00
977.5170, 17889.00
978.6310, 17723.00
979.7450, 17895.00
980.8590, 17942.00
981.9730, 17844.00
983.0860, 18124.00
984.2000, 18133.00
985.3130, 18272.00
986.4260, 18242.00
987.5390, 18417.00
988.6520, 18435.00
989.7640, 18598.00
990.8770, 18411.00
991.9890, 18796.00
993.1010, 18541.00
994.2130, 18873.00
995.3250, 18671.00
996.4370, 18845.00
997.5480, 18955.00
998.6590, 19005.00
999.7710, 19082.00
1000.882, 19049.00
1001.993, 19132.10
1003.103, 19161.78
1004.214, 19222.00
1005.324, 19262.00
1006.434, 19275.00
1007.545, 19349.00
1008.655, 19528.00
1009.764, 19467.00
1010.874, 19597.00
1011.983, 19819.00
1013.093, 19803.00
1014.202, 19735.00
1015.311, 19693.00
1016.420, 19632.00
1017.528, 19767.00
1018.637, 19691.00
1019.745, 19765.00
1020.854, 19757.00
1021.962, 20035.00
1023.070, 20107.00
1024.177, 19991.00
1025.285, 20111.00
1026.392, 20051.00
1027.500, 19991.00
1028.607, 20145.00
1029.714, 20442.00
1030.821, 20352.00
1031.927, 20246.00
1033.034, 20453.00
1034.140, 20213.00
1035.246, 20275.00
1036.352, 20513.00
1037.458, 20446.00
1038.564, 20399.00
1039.670, 20486.00
1040.775, 20455.42
1041.880, 20592.00
1042.986, 20565.00
1044.090, 20586.00
1045.195, 20756.00
1046.300, 20729.00
1047.404, 20548.00
1048.509, 20707.00
1049.613, 20672.00
1050.717, 20639.00
1051.821, 20756.00
1052.925, 20863.00
1054.028, 20735.00
1055.132, 20880.00
1056.235, 20847.00
1057.338, 20787.00
1058.441, 20956.00
1059.544, 20856.00
1060.647, 20793.00
1061.749, 20869.00
1062.851, 20892.00
1063.954, 20922.00
1065.056, 20930.00
1066.158, 20982.88
1067.259, 20996.00
1068.361, 21109.00
1069.462, 21051.00
1070.564, 21161.00
1071.665, 21316.00
1072.766, 21335.00
1073.867, 21403.39
1074.967, 21626.96
1076.068, 21790.50
1077.168, 21897.09
1078.268, 21776.52
1079.368, 21949.30
1080.468, 22004.51
1081.568, 22054.91
1082.668, 22268.96
1083.767, 22181.36
1084.866, 22392.74
1085.966, 22484.85
1087.065, 22631.51
1088.163, 22659.80
1089.262, 22724.71
1090.361, 22907.94
1091.459, 23025.58
1092.557, 23040.26
1093.655, 23190.31
1094.753, 23098.49
1095.851, 23218.91
1096.949, 23430.91
1098.046, 23451.46
1099.143, 23603.59
1100.241, 23579.00
1101.338, 23707.00
1102.434, 23843.00
1103.531, 23967.00
1104.628, 24051.80
1105.724, 24132.00
1106.820, 24184.00
1107.916, 24174.00
1109.012, 24188.00
1110.108, 24403.00
1111.204, 24224.00
1112.299, 24570.00
1113.395, 24453.00
1114.490, 24554.00
1115.585, 24497.00
1116.680, 24521.00
1117.775, 24649.09
1118.869, 24782.00
1119.964, 24894.00
1121.058, 25057.00
1122.152, 25155.00
1123.246, 25060.00
1124.340, 24924.00
1125.434, 25022.00
1126.527, 24868.00
1127.620, 25144.00
1128.714, 24951.00
1129.807, 24966.00
1130.900, 25121.00
1131.992, 25105.00
1133.085, 25200.74
1134.178, 25067.00
1135.270, 25272.00
1136.362, 25268.00
1137.454, 25143.00
1138.546, 25046.00
1139.638, 24923.00
1140.729, 25011.00
1141.821, 25174.00
1142.912, 24923.00
1144.003, 25034.00
1145.094, 24957.00
1146.185, 25168.00
1147.276, 24808.00
1148.366, 25171.00
1149.456, 24770.00
1150.547, 24799.00
1151.637, 25033.00
1152.727, 24614.00
1153.816, 24671.00
1154.906, 24576.00
1155.995, 24783.00
1157.085, 24557.00
1158.174, 24735.00
1159.263, 24440.00
1160.352, 24444.00
1161.441, 24510.00
1162.529, 24338.00
1163.618, 24197.00
1164.706, 24298.00
1165.794, 24398.00
1166.882, 24454.00
1167.970, 24020.00
1169.058, 23678.00
1170.145, 23829.00
1171.232, 23942.00
1172.320, 23841.00
1173.407, 23696.00
1174.494, 23449.00
1175.580, 23639.00
1176.667, 23221.00
1177.754, 23283.00
1178.840, 23172.00
1179.926, 23031.00
1181.012, 23104.00
1182.098, 23052.00
1183.184, 22841.00
1184.269, 22671.00
1185.355, 22650.00
1186.440, 22525.00
1187.525, 22543.00
1188.610, 22291.00
1189.695, 22268.11
1190.780, 22041.00
1191.864, 22103.00
1192.949, 21978.00
1194.033, 21882.00
1195.117, 21821.00
1196.201, 21677.00
1197.285, 21637.00
1198.369, 21521.00
1199.452, 21355.00
1200.536, 21297.82
1201.619, 21137.00
1202.702, 21108.00
1203.785, 21070.00
1204.868, 20974.00
1205.950, 20992.00
1207.033, 20929.86
1208.115, 20848.00
1209.197, 20852.00
1210.279, 20755.00
1211.361, 20694.00
1212.443, 20730.00
1213.525, 20809.00
1214.606, 20732.60
1215.687, 20572.00
1216.769, 20707.00
1217.850, 20548.00
1218.930, 20652.00
1220.011, 20544.00
1221.092, 20568.00
1222.172, 20426.00
1223.252, 20577.00
1224.333, 20471.00
1225.413, 20538.00
1226.492, 20470.00
1227.572, 20566.00
1228.652, 20354.00
1229.731, 20421.00
1230.810, 20695.00
1231.889, 20491.00
1232.968, 20572.00
1234.047, 20509.00
1235.126, 20593.00
1236.204, 20779.00
1237.283, 20599.00
1238.361, 20708.00
1239.439, 20661.00
1240.517, 20726.00
1241.595, 20642.00
1242.673, 20569.00
1243.750, 20567.00
1244.827, 20558.46
1245.905, 20599.00
1246.982, 20644.00
1248.059, 20634.00
1249.135, 20730.00
1250.212, 20665.00
1251.288, 20703.00
1252.365, 20609.00
1253.441, 21087.00
1254.517, 20879.00
1255.593, 20928.00
1256.669, 20683.00
1257.744, 21039.00
1258.820, 21124.00
1259.895, 20955.00
1260.970, 20941.00
1262.045, 20978.00
1263.120, 20989.00
1264.195, 20904.00
1265.270, 20963.73
1266.344, 21121.00
1267.418, 21019.00
1268.492, 21148.00
1269.566, 21210.00
1270.640, 21154.00
1271.714, 21157.00
1272.788, 21259.00
1273.861, 21290.00
1274.934, 21352.14
1276.007, 21316.00
1277.080, 21437.00
1278.153, 21421.00
1279.226, 21365.00
1280.299, 21250.00
1281.371, 21430.00
1282.443, 21541.00
1283.515, 21696.00
1284.587, 21730.00
1285.659, 21745.00
1286.731, 21642.00
1287.802, 21685.00
1288.874, 21732.00
1289.945, 21910.00
1291.016, 21858.00
1292.087, 21938.00
1293.158, 22061.00
1294.229, 22132.00
1295.299, 22194.23
1296.370, 22240.00
1297.440, 22307.00
1298.510, 22353.00
1299.580, 22359.68
1300.650, 22400.00
1301.720, 22361.00
1302.789, 22305.00
1303.859, 22310.95
1304.928, 22311.00
1305.997, 22329.00
1307.066, 22308.00
1308.135, 22332.00
1309.203, 22343.20
1310.272, 22412.21
1311.340, 22384.00
1312.409, 22502.00
1313.477, 22537.00
1314.545, 22406.00
1315.612, 22416.00
1316.680, 22478.00
1317.748, 22419.00
1318.815, 22451.98
1319.882, 22464.53
1320.949, 22453.00
1322.016, 22496.00
1323.083, 22494.16
1324.150, 22510.19
1325.216, 22550.00
1326.283, 22661.00
1327.349, 22702.00
1328.415, 22779.00
1329.481, 22656.00
1330.547, 22667.00
1331.613, 22586.00
1332.678, 22677.00
1333.744, 22791.00
1334.809, 22825.00
1335.874, 22631.00
1336.939, 22740.00
1338.004, 22969.00
1339.068, 22648.00
1340.133, 22775.00
1341.197, 22887.00
1342.262, 22882.00
1343.326, 23011.00
1344.390, 22887.00
1345.453, 23112.00
1346.517, 23005.00
1347.581, 23284.00
1348.644, 23316.64
1349.707, 23009.00
1350.770, 23395.00
1351.833, 23268.00
1352.896, 23104.00
1353.959, 23046.00
1355.022, 23134.00
1356.084, 23211.00
1357.146, 23135.00
1358.208, 23255.00
1359.270, 23290.00
1360.332, 23253.00
1361.394, 23306.82
1362.455, 23282.18
1363.517, 23283.00
1364.578, 23275.00
1365.639, 23206.00
1366.700, 23240.00
1367.761, 23302.00
1368.822, 23388.00
1369.883, 23330.00
1370.943, 23539.00
1372.003, 23246.00
1373.063, 23329.00
1374.123, 23318.00
1375.183, 23384.00
1376.243, 23341.00
1377.303, 23437.00
1378.362, 23328.00
1379.421, 23344.00
1380.481, 23487.00
1381.540, 23455.00
1382.598, 23460.00
1383.657, 23355.00
1384.716, 23474.00
1385.774, 23593.00
1386.833, 23599.00
1387.891, 23426.00
1388.949, 23438.00
1390.007, 23518.00
1391.065, 23351.00
1392.122, 23721.00
1393.180, 23535.00
1394.237, 23621.00
1395.294, 23848.00
1396.351, 23603.00
1397.408, 23486.00
1398.465, 23435.00
1399.522, 23618.00
1400.578, 23686.00
1401.635, 23920.00
1402.691, 23716.00
1403.747, 23682.00
1404.803, 23784.00
1405.859, 23758.00
1406.914, 23844.00
1407.970, 23965.00
1409.025, 23558.00
1410.081, 23990.00
1411.136, 23964.00
1412.191, 23813.00
1413.245, 24043.00
1414.300, 24171.00
1415.355, 23987.00
1416.409, 24384.00
1417.463, 24075.00
1418.518, 23999.00
1419.572, 24176.00
1420.625, 24202.00
1421.679, 24404.00
1422.733, 24310.00
1423.786, 24209.00
1424.840, 24255.00
1425.893, 24350.00
1426.946, 24356.00
1427.999, 24732.00
1429.051, 24732.28
1430.104, 24715.00
1431.157, 25004.00
1432.209, 24871.00
1433.261, 25111.00
1434.313, 25154.00
1435.365, 25114.00
1436.417, 25231.00
1437.468, 25181.00
1438.520, 25406.00
1439.571, 25379.00
1440.623, 25396.00
1441.674, 25584.00
1442.725, 25660.00
1443.775, 25400.00
1444.826, 25311.00
1445.877, 25376.00
1446.927, 25355.00
1447.977, 25617.00
1449.028, 25351.00
1450.078, 25615.00
1451.127, 25362.00
1452.177, 25557.00
1453.227, 25507.00
1454.276, 25679.00
1455.325, 25668.00
1456.375, 25646.00
1457.424, 25582.00
1458.473, 25616.00
1459.521, 25618.00
1460.570, 25305.64
1461.618, 25429.49
1462.667, 25493.24
1463.715, 25500.14
1464.763, 25279.87
1465.811, 25352.94
1466.859, 25308.46
1467.906, 25259.16
1468.954, 25373.52
1470.001, 25186.30
1471.049, 25298.06
1472.096, 25290.48
1473.143, 25337.53
1474.190, 25266.29
1475.236, 25231.60
1476.283, 25315.22
1477.329, 25333.34
1478.376, 25248.48
1479.422, 25300.00
1480.468, 25297.00
1481.514, 25349.00
1482.559, 25209.00
1483.605, 25418.00
1484.650, 25196.00
1485.696, 25468.00
1486.741, 25342.00
1487.786, 25267.00
1488.831, 25337.00
1489.876, 25429.00
1490.920, 25335.00
1491.965, 25535.00
1493.009, 25304.00
1494.054, 25492.00
1495.098, 25389.00
1496.142, 25517.00
1497.185, 25439.00
1498.229, 25640.00
1499.273, 25348.00
1500.316, 25632.00
1501.359, 25749.00
1502.403, 25426.00
1503.446, 25690.00
1504.489, 25886.00
1505.531, 25498.00
1506.574, 25742.00
1507.616, 25902.00
1508.659, 25800.00
1509.701, 25814.00
1510.743, 25765.00
1511.785, 25778.08
1512.827, 25837.44
1513.868, 25815.00
1514.910, 26019.00
1515.951, 26010.00
1516.993, 26161.00
1518.034, 26221.00
1519.075, 26100.00
1520.116, 26105.00
1521.156, 26242.00
1522.197, 26150.00
1523.237, 26209.00
1524.278, 26380.00
1525.318, 26385.00
1526.358, 26494.00
1527.398, 26644.00
1528.438, 26462.00
1529.477, 26633.00
1530.517, 26707.00
1531.556, 26587.00
1532.596, 26535.00
1533.635, 26695.00
1534.674, 26675.00
1535.712, 26532.00
1536.751, 26584.00
1537.790, 26633.00
1538.828, 26575.00
1539.866, 26782.00
1540.905, 26747.00
1541.943, 26704.00
1542.981, 26871.00
1544.018, 26917.00
1545.056, 26863.00
1546.094, 26978.00
1547.131, 26966.00
1548.168, 27141.00
1549.205, 26992.77
1550.242, 27150.39
1551.279, 27247.93
1552.316, 27288.60
1553.352, 27102.08
1554.389, 27208.92
1555.425, 27198.18
1556.461, 27182.63
1557.497, 27330.74
1558.533, 27177.26
1559.569, 27322.77
1560.605, 27348.94
1561.640, 27429.70
1562.675, 27585.00
1563.711, 27585.00
##END=



