##NAMES=Inyoite
##RRUFFID=R040161
##IDEAL CHEMISTRY=CaB_3_O_3_(OH)_5_&#183;4H_2_O
##LOCALITY=Kramer deposit, Boron, Kern County, California, USA
##OWNER=RRUFF
##SOURCE=University of Arizona Mineral Museum
##DESCRIPTION=Group of colorless indistinct rounded crystals
##STATUS=The identification of this mineral has been confirmed by X-ray diffraction and chemical analysis
##URL=rruff.info/R040161
##MEASURED CHEMISTRY=Ca_1.00_B_3.00_O_3_(OH)_5_Â·4H_2_O
##PIN_ID=L00113
##ORIENTATION=Laser parallel to b* (0 1 0). Fiducial mark perpendicular to laser is parallel to c [0 0 1]
99.34400, 12519.00
100.5810, 12716.00
101.8190, 13100.00
103.0560, 13300.00
104.2930, 13589.61
105.5290, 13962.00
106.7660, 14142.00
108.0020, 14384.00
109.2390, 14676.00
110.4750, 14621.00
111.7110, 14774.00
112.9460, 14916.00
114.1820, 15133.00
115.4170, 15286.12
116.6530, 15474.29
117.8880, 15629.00
119.1230, 15835.00
120.3580, 15978.00
121.5920, 16131.00
122.8270, 16489.00
124.0610, 16687.00
125.2950, 16720.00
126.5290, 16773.00
127.7630, 16736.00
128.9970, 16610.00
130.2300, 16610.00
131.4640, 16787.00
132.6970, 16907.00
133.9300, 17237.00
135.1630, 17289.00
136.3950, 17320.00
137.6280, 17718.00
138.8600, 18232.00
140.0920, 18757.00
141.3240, 19404.00
142.5560, 20045.00
143.7880, 21032.00
145.0190, 22188.00
146.2510, 23532.00
147.4820, 25530.00
148.7130, 27594.00
149.9440, 29277.00
151.1750, 29533.00
152.4050, 28358.00
153.6360, 26048.00
154.8660, 23978.00
156.0960, 22569.00
157.3260, 21364.00
158.5560, 20742.00
159.7850, 20528.00
161.0150, 20182.00
162.2440, 20221.00
163.4730, 20615.00
164.7020, 21183.00
165.9310, 21713.00
167.1590, 22682.00
168.3880, 23914.00
169.6160, 25309.00
170.8440, 26976.00
172.0720, 29106.00
173.3000, 30882.00
174.5280, 33057.00
175.7550, 35330.00
176.9820, 37314.00
178.2100, 39480.00
179.4370, 41187.00
180.6630, 41839.00
181.8900, 41045.00
183.1170, 38650.00
184.3430, 35773.00
185.5690, 32960.00
186.7950, 30429.00
188.0210, 28548.00
189.2470, 27145.00
190.4720, 26483.00
191.6970, 26106.00
192.9230, 25590.00
194.1480, 25322.00
195.3730, 24739.00
196.5970, 24078.00
197.8220, 23223.00
199.0460, 22512.00
200.2700, 21754.00
201.4940, 21340.00
202.7180, 20874.00
203.9420, 20555.00
205.1660, 20578.00
206.3890, 19951.00
207.6120, 20143.00
208.8350, 20161.00
210.0580, 19833.00
211.2810, 19890.00
212.5040, 19558.00
213.7260, 19248.00
214.9480, 19350.00
216.1700, 19106.00
217.3920, 18996.00
218.6140, 18892.00
219.8360, 18819.00
221.0570, 18739.00
222.2790, 18718.71
223.5000, 18795.00
224.7210, 18739.00
225.9410, 18710.00
227.1620, 18786.77
228.3820, 18987.00
229.6030, 18958.00
230.8230, 19017.00
232.0430, 19070.00
233.2630, 19057.00
234.4820, 19362.00
235.7020, 19331.00
236.9210, 19253.00
238.1400, 19107.00
239.3590, 19142.62
240.5780, 19143.10
241.7970, 19173.00
243.0150, 19304.00
244.2340, 19355.21
245.4520, 19507.00
246.6700, 19659.00
247.8880, 19852.00
249.1060, 20025.00
250.3230, 20332.00
251.5400, 20567.58
252.7580, 20747.00
253.9750, 21145.00
255.1920, 21367.00
256.4080, 21660.00
257.6250, 21942.00
258.8410, 21999.00
260.0580, 22115.42
261.2740, 22119.00
262.4900, 22089.00
263.7050, 21924.00
264.9210, 21803.00
266.1360, 21523.00
267.3520, 21474.00
268.5670, 21336.00
269.7820, 21218.09
270.9960, 21278.00
272.2110, 21035.00
273.4250, 21095.00
274.6400, 20977.00
275.8540, 20772.00
277.0680, 20862.00
278.2810, 20709.00
279.4950, 20569.00
280.7090, 20423.00
281.9220, 20414.00
283.1350, 20532.00
284.3480, 20366.00
285.5610, 20302.00
286.7730, 20312.00
287.9860, 20193.00
289.1980, 20319.00
290.4100, 20304.00
291.6220, 20142.00
292.8340, 20426.00
294.0460, 20597.00
295.2570, 20341.00
296.4690, 20688.00
297.6800, 20570.00
298.8910, 20708.00
300.1020, 20735.00
301.3120, 20956.00
302.5230, 21097.00
303.7330, 21236.09
304.9440, 21235.00
306.1540, 21532.00
307.3630, 21671.00
308.5730, 21749.00
309.7830, 22064.00
310.9920, 22291.00
312.2010, 22597.00
313.4100, 22860.77
314.6190, 23161.00
315.8280, 23439.00
317.0370, 23777.00
318.2450, 24161.00
319.4530, 24708.00
320.6610, 25196.00
321.8690, 25602.00
323.0770, 25896.00
324.2850, 26677.00
325.4920, 26906.00
326.6990, 27136.00
327.9060, 27174.00
329.1130, 26625.00
330.3200, 26255.00
331.5270, 25965.00
332.7330, 25195.00
333.9390, 24739.00
335.1450, 24209.00
336.3510, 23743.00
337.5570, 23213.00
338.7630, 22877.00
339.9680, 22648.00
341.1740, 22536.00
342.3790, 22384.00
343.5840, 22458.00
344.7890, 22366.00
345.9930, 22301.00
347.1980, 22529.00
348.4020, 22490.00
349.6060, 22447.00
350.8100, 22598.00
352.0140, 22579.00
353.2180, 22502.00
354.4210, 22503.00
355.6250, 22437.00
356.8280, 22435.00
358.0310, 22489.00
359.2340, 22404.00
360.4360, 22165.00
361.6390, 22108.00
362.8410, 22224.00
364.0430, 22314.00
365.2450, 22130.00
366.4470, 22222.00
367.6490, 22319.00
368.8510, 22285.00
370.0520, 22337.00
371.2530, 22472.00
372.4540, 22318.00
373.6550, 22635.00
374.8560, 22428.00
376.0560, 22689.00
377.2570, 22686.00
378.4570, 22799.00
379.6570, 22763.00
380.8570, 22951.00
382.0570, 23052.00
383.2560, 23042.00
384.4560, 23340.00
385.6550, 23198.00
386.8540, 23487.00
388.0530, 23530.00
389.2520, 23740.00
390.4510, 23345.00
391.6490, 23343.00
392.8470, 23430.00
394.0450, 23202.00
395.2430, 23171.00
396.4410, 23100.00
397.6390, 23009.00
398.8360, 23036.70
400.0340, 23056.31
401.2310, 23126.00
402.4280, 23246.00
403.6250, 23407.00
404.8210, 23612.00
406.0180, 23729.00
407.2140, 23744.00
408.4100, 23864.00
409.6060, 23458.00
410.8020, 23481.00
411.9980, 23233.00
413.1930, 23262.00
414.3890, 23041.00
415.5840, 23103.00
416.7790, 23056.00
417.9740, 22775.00
419.1680, 22836.00
420.3630, 22644.00
421.5570, 22834.00
422.7510, 22843.00
423.9450, 22795.00
425.1390, 22768.00
426.3330, 22622.00
427.5270, 22742.00
428.7200, 22788.00
429.9130, 22750.00
431.1060, 22898.00
432.2990, 22858.00
433.4920, 22963.00
434.6840, 22964.00
435.8770, 23067.00
437.0690, 22906.00
438.2610, 22831.00
439.4530, 23040.00
440.6450, 23093.00
441.8360, 23251.00
443.0280, 23156.00
444.2190, 23264.00
445.4100, 23070.00
446.6010, 23164.00
447.7920, 23167.00
448.9820, 23311.00
450.1730, 23366.00
451.3630, 23413.00
452.5530, 23395.00
453.7430, 23621.00
454.9330, 23703.00
456.1230, 23820.00
457.3120, 24047.00
458.5010, 24217.00
459.6910, 24329.00
460.8800, 24644.00
462.0680, 24733.00
463.2570, 24982.00
464.4460, 25154.00
465.6340, 25057.00
466.8220, 24958.00
468.0100, 24894.00
469.1980, 24656.00
470.3860, 24636.00
471.5730, 24329.00
472.7600, 24448.00
473.9480, 24513.00
475.1350, 24150.00
476.3210, 24278.00
477.5080, 24117.00
478.6950, 24266.00
479.8810, 24118.00
481.0670, 24091.00
482.2530, 23906.00
483.4390, 24150.00
484.6250, 24048.00
485.8100, 24185.00
486.9960, 24066.00
488.1810, 24164.00
489.3660, 24207.00
490.5510, 24200.00
491.7360, 24350.00
492.9200, 24389.19
494.1050, 24477.00
495.2890, 24607.00
496.4730, 24635.00
497.6570, 24835.00
498.8400, 25010.00
500.0240, 25182.00
501.2070, 25252.00
502.3910, 25526.00
503.5740, 25551.00
504.7570, 25924.00
505.9400, 25927.00
507.1220, 25951.00
508.3050, 25756.00
509.4870, 25924.00
510.6690, 25924.00
511.8510, 26143.00
513.0330, 25915.00
514.2140, 26272.00
515.3960, 25953.00
516.5770, 25948.00
517.7580, 26033.00
518.9390, 26007.00
520.1200, 26099.00
521.3010, 26135.00
522.4810, 26023.00
523.6610, 26155.00
524.8420, 26271.00
526.0220, 26062.00
527.2010, 26244.00
528.3810, 26324.00
529.5610, 26458.00
530.7400, 26128.00
531.9190, 26600.00
533.0980, 26250.00
534.2770, 26381.00
535.4560, 26210.00
536.6340, 26217.00
537.8120, 26310.00
538.9910, 26160.00
540.1690, 26012.00
541.3460, 26276.00
542.5240, 26217.00
543.7020, 26129.00
544.8790, 26030.00
546.0560, 26037.00
547.2330, 26066.00
548.4100, 26002.00
549.5870, 26263.00
550.7630, 26045.00
551.9400, 26180.00
553.1160, 26389.00
554.2920, 26723.00
555.4680, 26461.00
556.6440, 26538.00
557.8190, 26539.00
558.9950, 26713.00
560.1700, 26627.00
561.3450, 26923.00
562.5200, 26820.00
563.6950, 26908.00
564.8690, 26957.00
566.0440, 27003.00
567.2180, 27030.00
568.3920, 27135.00
569.5660, 27105.79
570.7400, 27007.00
571.9130, 27070.00
573.0870, 27122.00
574.2600, 27092.00
575.4330, 27137.00
576.6060, 27150.48
577.7790, 27208.81
578.9520, 27245.00
580.1240, 27377.00
581.2960, 27553.00
582.4690, 27691.71
583.6410, 27652.00
584.8120, 27948.00
585.9840, 28006.00
587.1560, 28080.00
588.3270, 28361.00
589.4980, 28391.00
590.6690, 28725.00
591.8400, 28874.00
593.0110, 29113.00
594.1810, 29401.00
595.3510, 29860.00
596.5220, 29993.00
597.6920, 30673.00
598.8610, 31068.00
600.0310, 31695.00
601.2010, 32560.00
602.3700, 33439.00
603.5390, 34458.00
604.7080, 36056.00
605.8770, 37583.00
607.0460, 39892.00
608.2140, 41946.00
609.3830, 44890.00
610.5510, 47691.00
611.7190, 50809.00
612.8870, 53560.00
614.0550, 55900.00
615.2220, 57210.00
616.3900, 57065.00
617.5570, 55475.00
618.7240, 52232.00
619.8910, 48462.00
621.0580, 44985.00
622.2240, 41844.00
623.3910, 39325.00
624.5570, 37095.00
625.7230, 35691.00
626.8890, 34275.00
628.0550, 33106.00
629.2200, 32341.00
630.3860, 31763.00
631.5510, 31248.00
632.7160, 30761.00
633.8810, 30507.00
635.0460, 30048.00
636.2100, 30206.00
637.3750, 29708.00
638.5390, 29734.00
639.7030, 29672.00
640.8670, 29579.00
642.0310, 29530.00
643.1950, 29758.00
644.3580, 29697.00
645.5210, 29393.00
646.6850, 29859.00
647.8480, 29564.00
649.0100, 29605.00
650.1730, 29452.00
651.3350, 29885.00
652.4980, 29532.00
653.6600, 29605.00
654.8220, 29484.00
655.9840, 29500.00
657.1450, 29398.00
658.3070, 29570.00
659.4680, 29536.00
660.6300, 29601.00
661.7910, 29415.00
662.9510, 29447.00
664.1120, 29458.00
665.2730, 29398.00
666.4330, 29714.00
667.5930, 29805.00
668.7530, 29736.00
669.9130, 29999.00
671.0730, 29932.00
672.2320, 29903.00
673.3920, 29955.00
674.5510, 29983.17
675.7100, 30182.00
676.8690, 30192.00
678.0280, 30302.00
679.1860, 30522.00
680.3450, 30416.00
681.5030, 30227.00
682.6610, 30432.00
683.8190, 30376.00
684.9770, 30509.00
686.1340, 30530.00
687.2920, 30412.00
688.4490, 30533.00
689.6060, 30489.00
690.7630, 30530.00
691.9200, 30457.00
693.0760, 30585.00
694.2330, 30426.00
695.3890, 30450.00
696.5450, 30663.00
697.7010, 30530.00
698.8570, 30796.00
700.0130, 30604.00
701.1680, 30552.00
702.3230, 30612.00
703.4780, 30417.00
704.6330, 30574.00
705.7880, 30412.00
706.9430, 30592.00
708.0970, 30348.00
709.2520, 30555.00
710.4060, 30550.00
711.5600, 30599.00
712.7140, 30600.00
713.8670, 30587.00
715.0210, 30655.00
716.1740, 30639.00
717.3270, 30696.00
718.4800, 30756.00
719.6330, 30901.00
720.7860, 30950.00
721.9380, 31030.00
723.0910, 31069.00
724.2430, 31565.00
725.3950, 31770.00
726.5470, 32167.00
727.6980, 32340.00
728.8500, 32903.00
730.0010, 33240.00
731.1530, 33132.00
732.3040, 33082.00
733.4550, 32743.00
734.6050, 32177.00
735.7560, 32071.00
736.9060, 31489.00
738.0560, 31372.00
739.2060, 30958.00
740.3560, 31012.00
741.5060, 30783.00
742.6560, 30521.00
743.8050, 30722.00
744.9540, 30620.00
746.1030, 30662.00
747.2520, 30577.00
748.4010, 30611.00
749.5500, 30525.00
750.6980, 30537.00
751.8460, 30428.00
752.9950, 30560.00
754.1420, 30721.00
755.2900, 30492.00
756.4380, 30513.00
757.5850, 30683.00
758.7330, 30562.00
759.8800, 30843.00
761.0270, 30655.00
762.1730, 30818.00
763.3200, 30709.00
764.4670, 30861.00
765.6130, 30711.00
766.7590, 30931.00
767.9050, 30854.00
769.0510, 30887.00
770.1960, 30841.00
771.3420, 30930.00
772.4870, 30812.00
773.6320, 30927.00
774.7770, 30861.00
775.9220, 31017.00
777.0670, 31100.00
778.2110, 31195.00
779.3560, 31293.00
780.5000, 31284.00
781.6440, 31336.75
782.7880, 31283.98
783.9320, 31334.00
785.0750, 31146.00
786.2180, 31086.00
787.3620, 31027.00
788.5050, 31336.00
789.6480, 31183.00
790.7900, 31345.00
791.9330, 31360.00
793.0750, 31341.00
794.2170, 31375.00
795.3590, 31580.00
796.5010, 31459.00
797.6430, 31399.00
798.7850, 31637.00
799.9260, 31562.00
801.0670, 31655.00
802.2080, 31677.00
803.3490, 31768.00
804.4900, 31687.00
805.6310, 31623.00
806.7710, 31582.00
807.9110, 31931.00
809.0510, 31942.00
810.1910, 32068.00
811.3310, 31857.00
812.4710, 31832.00
813.6100, 31917.00
814.7490, 31885.80
815.8880, 31833.00
817.0270, 32071.00
818.1660, 31926.00
819.3050, 32094.00
820.4430, 32381.00
821.5820, 32101.00
822.7200, 32264.00
823.8580, 32199.00
824.9950, 32415.00
826.1330, 32555.00
827.2710, 32568.40
828.4080, 32348.00
829.5450, 32549.00
830.6820, 32621.00
831.8190, 32343.00
832.9560, 32447.00
834.0920, 32429.00
835.2280, 32485.00
836.3650, 32440.00
837.5010, 32381.00
838.6360, 32810.00
839.7720, 32417.00
840.9080, 32460.00
842.0430, 32860.00
843.1780, 32690.00
844.3130, 32984.00
845.4480, 32833.00
846.5830, 33204.00
847.7170, 33084.00
848.8520, 33185.00
849.9860, 33053.00
851.1200, 33152.00
852.2540, 33195.00
853.3870, 33154.00
854.5210, 33213.00
855.6540, 33211.00
856.7880, 33309.92
857.9210, 33532.00
859.0540, 33541.00
860.1860, 33645.00
861.3190, 33763.00
862.4510, 33623.00
863.5840, 33437.00
864.7160, 33613.00
865.8480, 33726.00
866.9790, 33691.00
868.1110, 33793.00
869.2420, 33904.00
870.3740, 33464.00
871.5050, 33799.00
872.6360, 33956.00
873.7660, 33568.00
874.8970, 33867.00
876.0280, 33696.00
877.1580, 33673.00
878.2880, 33977.00
879.4180, 33897.00
880.5480, 33971.00
881.6770, 34053.00
882.8070, 33945.00
883.9360, 33896.00
885.0650, 33888.00
886.1940, 33972.00
887.3230, 33984.41
888.4520, 33990.00
889.5800, 34065.00
890.7090, 34314.00
891.8370, 34274.00
892.9650, 34494.00
894.0930, 34231.00
895.2200, 34410.00
896.3480, 34588.00
897.4750, 34456.00
898.6020, 34566.00
899.7290, 34664.00
900.8560, 34771.00
901.9830, 34885.00
903.1090, 35009.00
904.2360, 34889.00
905.3620, 35126.00
906.4880, 34912.00
907.6140, 35420.00
908.7400, 35389.00
909.8650, 35627.00
910.9900, 35525.00
912.1160, 36007.00
913.2410, 35883.00
914.3660, 36115.00
915.4900, 36197.00
916.6150, 36202.00
917.7390, 36450.00
918.8640, 36719.00
919.9880, 36887.00
921.1120, 37012.00
922.2350, 37412.00
923.3590, 37607.00
924.4820, 38213.00
925.6060, 38105.00
926.7290, 38524.00
927.8520, 38552.00
928.9740, 38605.00
930.0970, 38630.00
931.2190, 38436.00
932.3420, 38254.00
933.4640, 38324.00
934.5860, 37950.00
935.7080, 37571.00
936.8290, 37457.00
937.9510, 37390.00
939.0720, 37094.00
940.1930, 37145.00
941.3140, 37034.00
942.4350, 36908.00
943.5560, 37025.00
944.6760, 36418.00
945.7960, 36457.00
946.9170, 36506.00
948.0370, 36242.00
949.1560, 36474.00
950.2760, 36385.00
951.3960, 36419.00
952.5150, 36268.00
953.6340, 36425.00
954.7530, 36465.00
955.8720, 36483.00
956.9910, 36337.00
958.1090, 36460.00
959.2280, 36249.00
960.3460, 36540.00
961.4640, 36355.00
962.5820, 36184.00
963.6990, 36348.00
964.8170, 36174.00
965.9340, 36293.00
967.0510, 36423.00
968.1690, 36557.00
969.2850, 36566.48
970.4020, 36790.00
971.5190, 36614.00
972.6350, 36482.00
973.7510, 36599.00
974.8670, 36553.00
975.9830, 36753.00
977.0990, 36687.00
978.2150, 36689.00
979.3300, 36801.00
980.4450, 36582.00
981.5600, 36655.00
982.6750, 36435.00
983.7900, 36540.00
984.9050, 36451.00
986.0190, 36743.00
987.1340, 36526.00
988.2480, 36606.00
989.3620, 36573.00
990.4750, 36638.00
991.5890, 36567.00
992.7020, 36648.00
993.8160, 36864.00
994.9290, 36773.00
996.0420, 37021.00
997.1550, 36662.00
998.2670, 36879.00
999.3800, 37159.00
1000.492, 37469.00
1001.604, 37324.00
1002.716, 37775.00
1003.828, 37601.00
1004.940, 37428.00
1006.051, 37133.00
1007.163, 37181.00
1008.274, 37156.00
1009.385, 37073.00
1010.496, 37369.00
1011.606, 37365.00
1012.717, 37225.00
1013.827, 37391.00
1014.937, 37273.00
1016.047, 37447.00
1017.157, 37403.00
1018.267, 37290.00
1019.377, 37617.00
1020.486, 37384.00
1021.595, 37658.00
1022.704, 37730.00
1023.813, 37832.00
1024.922, 37797.00
1026.030, 37622.00
1027.139, 37746.00
1028.247, 37593.00
1029.355, 37434.00
1030.463, 37764.00
1031.571, 37584.00
1032.678, 37929.00
1033.786, 37603.00
1034.893, 38028.00
1036.000, 37950.00
1037.107, 38071.00
1038.214, 37876.00
1039.321, 37790.00
1040.427, 37889.00
1041.533, 38101.00
1042.639, 38038.00
1043.745, 38228.00
1044.851, 37975.00
1045.957, 38449.00
1047.062, 38470.00
1048.168, 38260.00
1049.273, 38290.00
1050.378, 38521.00
1051.482, 38710.00
1052.587, 38559.00
1053.692, 38898.00
1054.796, 38731.00
1055.900, 39087.00
1057.004, 38962.00
1058.108, 38841.00
1059.212, 39029.00
1060.315, 39211.00
1061.418, 39232.00
1062.522, 39132.00
1063.625, 39428.00
1064.728, 39187.00
1065.830, 39387.00
1066.933, 39558.00
1068.035, 39350.00
1069.137, 39558.00
1070.239, 39415.00
1071.341, 39253.00
1072.443, 39212.00
1073.545, 39408.00
1074.646, 39492.00
1075.747, 39507.00
1076.848, 39421.00
1077.949, 39518.00
1079.050, 39535.00
1080.150, 39564.00
1081.251, 39583.00
1082.351, 39643.00
1083.451, 39685.00
1084.551, 39672.00
1085.651, 39654.00
1086.750, 39905.00
1087.850, 39769.00
1088.949, 39581.00
1090.048, 39970.00
1091.147, 39688.00
1092.246, 39631.00
1093.345, 39596.00
1094.443, 39598.00
1095.541, 39974.00
1096.639, 39877.00
1097.737, 39943.00
1098.835, 39987.48
1099.933, 39852.00
1101.030, 39931.00
1102.128, 39938.00
1103.225, 39942.00
1104.322, 40035.00
1105.419, 39908.00
1106.515, 40152.00
1107.612, 40116.00
1108.708, 40299.00
1109.804, 40157.00
1110.900, 40367.00
1111.996, 40049.00
1113.092, 40352.00
1114.187, 40316.00
1115.283, 40295.00
1116.378, 40145.00
1117.473, 40257.00
1118.568, 40338.00
1119.662, 40113.00
1120.757, 40503.00
1121.851, 40346.00
1122.946, 40526.00
1124.040, 40224.00
1125.134, 40389.00
1126.227, 40599.00
1127.321, 40302.00
1128.414, 40523.00
1129.508, 40512.00
1130.601, 40546.00
1131.693, 40608.35
1132.786, 40431.00
1133.879, 40557.00
1134.971, 40599.00
1136.064, 40419.00
1137.156, 40655.00
1138.248, 40242.00
1139.339, 40594.00
1140.431, 40491.00
1141.522, 40487.00
1142.614, 40521.00
1143.705, 40644.00
1144.796, 40436.00
1145.887, 40327.00
1146.977, 40625.00
1148.068, 40710.00
1149.158, 40862.00
1150.248, 40767.00
1151.338, 40832.00
1152.428, 40942.00
1153.518, 40695.00
1154.607, 40794.00
1155.696, 40685.00
1156.785, 41014.00
1157.874, 40769.00
1158.963, 40988.00
1160.052, 40938.00
1161.141, 40819.00
1162.229, 41164.00
1163.317, 41116.00
1164.405, 41069.00
1165.493, 41203.00
1166.581, 41558.00
1167.668, 41343.00
1168.756, 41417.00
1169.843, 41244.00
1170.930, 41461.00
1172.017, 41454.00
1173.103, 41713.00
1174.190, 41562.00
1175.276, 41542.00
1176.363, 41509.00
1177.449, 41504.00
1178.535, 41382.00
1179.620, 41615.00
1180.706, 41497.00
1181.791, 41566.00
1182.877, 41702.00
1183.962, 41661.00
1185.047, 41717.00
1186.131, 41442.00
1187.216, 41738.00
1188.300, 41523.00
1189.385, 41892.00
1190.469, 41794.00
1191.553, 41999.00
1192.637, 42058.00
1193.720, 41734.00
1194.804, 42012.00
1195.887, 41755.00
1196.970, 41863.00
1198.053, 42062.00
1199.136, 42196.00
1200.219, 42237.00
1201.301, 42103.00
1202.383, 41986.00
1203.465, 42242.00
1204.547, 42225.00
1205.629, 42228.00
1206.711, 42400.00
1207.792, 42321.00
1208.874, 42360.00
1209.955, 42344.00
1211.036, 42340.00
1212.117, 42543.00
1213.198, 42449.00
1214.278, 42558.00
1215.359, 42576.00
1216.439, 42980.00
1217.519, 42608.00
1218.599, 42406.00
1219.678, 42739.00
1220.758, 42596.00
1221.837, 42690.00
1222.917, 42569.00
1223.996, 42790.00
1225.075, 42748.00
1226.153, 42817.00
1227.232, 43069.00
1228.310, 42919.00
1229.389, 43053.00
1230.467, 42903.00
1231.545, 42923.00
1232.622, 42899.00
1233.700, 43167.00
1234.777, 43332.00
1235.855, 43311.00
1236.932, 43229.00
1238.009, 43553.00
1239.086, 43520.00
1240.162, 43611.00
1241.239, 43472.00
1242.315, 43776.00
1243.391, 43402.00
1244.467, 43667.00
1245.543, 43687.00
1246.619, 44035.00
1247.694, 43624.00
1248.769, 43810.00
1249.844, 43913.00
1250.919, 44167.00
1251.994, 44172.00
1253.069, 43807.00
1254.144, 44155.00
1255.218, 44018.00
1256.292, 44086.00
1257.366, 44078.00
1258.440, 44057.00
1259.514, 44248.00
1260.587, 44258.00
1261.661, 44163.00
1262.734, 44378.00
1263.807, 44332.00
1264.880, 44251.00
1265.952, 44353.00
1267.025, 44333.00
1268.097, 44101.00
1269.170, 44219.00
1270.242, 44237.00
1271.314, 44165.00
1272.385, 44264.00
1273.457, 44186.00
1274.528, 44239.70
1275.600, 44211.00
1276.671, 44346.00
1277.742, 44283.00
1278.812, 44386.00
1279.883, 44212.00
1280.954, 44319.00
1282.024, 44012.00
1283.094, 44308.00
1284.164, 44375.00
1285.234, 44214.00
1286.303, 44640.00
1287.373, 44327.00
1288.442, 44540.00
1289.511, 44377.00
1290.580, 44010.00
1291.649, 43947.00
1292.718, 44301.00
1293.786, 44168.00
1294.855, 44406.00
1295.923, 44327.00
1296.991, 44193.00
1298.059, 44421.00
1299.126, 44522.00
1300.194, 44592.00
1301.261, 44796.00
1302.328, 44913.00
1303.395, 45078.00
1304.462, 44981.00
1305.529, 45022.00
1306.596, 44790.00
1307.662, 45197.00
1308.728, 45016.00
1309.794, 45493.00
1310.860, 45329.00
1311.926, 45545.00
1312.991, 45478.00
1314.057, 45452.00
1315.122, 45762.00
1316.187, 45832.00
1317.252, 45896.00
1318.317, 45985.00
1319.381, 46010.00
1320.446, 45822.00
1321.510, 46155.00
1322.574, 46119.00
1323.638, 45883.00
1324.702, 45779.00
1325.766, 45893.00
1326.829, 45991.00
1327.892, 45861.00
1328.956, 45920.00
1330.019, 45576.00
1331.081, 45717.00
1332.144, 45511.00
1333.206, 45857.00
1334.269, 45814.00
1335.331, 45473.00
1336.393, 45746.00
1337.455, 45621.00
1338.516, 45689.00
1339.578, 45786.00
1340.639, 45815.00
1341.701, 45713.00
1342.762, 45843.00
1343.822, 45853.00
1344.883, 45966.00
1345.944, 46004.00
1347.004, 45757.00
1348.064, 45920.00
1349.124, 45879.00
1350.184, 46098.00
1351.244, 45988.00
1352.304, 45737.00
1353.363, 45845.00
1354.422, 45996.00
1355.481, 45990.00
1356.540, 46349.00
1357.599, 46041.00
1358.657, 46239.00
1359.716, 46450.00
1360.774, 46350.00
1361.832, 46167.00
1362.890, 46287.00
1363.948, 46401.00
1365.006, 46204.00
1366.063, 46445.00
1367.120, 46623.00
1368.178, 46355.00
1369.234, 46340.00
1370.291, 46489.00
1371.348, 46405.84
1372.404, 46536.00
1373.461, 46513.00
1374.517, 46685.00
1375.573, 46750.00
1376.629, 46571.00
1377.684, 46718.00
1378.740, 46816.00
1379.795, 46914.00
1380.850, 46820.00
1381.905, 46905.00
1382.960, 46822.00
1384.015, 46935.00
1385.070, 46921.00
1386.124, 46923.80
1387.178, 46796.00
1388.232, 46942.00
1389.286, 46781.00
1390.340, 46784.00
1391.393, 46942.00
1392.447, 46884.27
1393.500, 46974.00
1394.553, 47025.00
1395.606, 46799.00
1396.659, 46948.00
1397.711, 46861.00
1398.764, 47051.00
1399.816, 47147.00
1400.868, 46963.00
1401.920, 47140.00
1402.972, 47361.00
1404.023, 47276.00
1405.075, 47478.00
1406.126, 47397.00
1407.177, 47528.00
1408.228, 47392.00
1409.279, 47433.00
1410.330, 47378.00
1411.380, 47569.00
1412.431, 47509.00
1413.481, 47530.00
1414.531, 47575.00
1415.580, 47545.00
1416.630, 47525.00
1417.680, 47868.00
1418.729, 47703.00
1419.778, 47849.00
1420.827, 47634.00
1421.876, 47672.00
1422.925, 47747.00
1423.973, 47747.48
1425.022, 47930.00
1426.070, 47905.00
1427.118, 47922.00
1428.166, 47930.00
1429.214, 48233.00
1430.261, 48138.00
1431.309, 47869.00
1432.356, 48213.00
1433.403, 48122.00
1434.450, 48565.00
1435.497, 48568.00
1436.543, 48658.00
1437.590, 48601.00
1438.636, 48725.00
1439.682, 48860.00
1440.728, 48783.00
1441.774, 49014.00
1442.819, 49153.00
1443.865, 48951.00
1444.910, 48977.00
1445.955, 48952.00
1447.000, 49049.00
1448.045, 49004.00
1449.090, 49273.00
1450.134, 49155.00
1451.178, 49425.00
1452.223, 49249.00
1453.267, 49232.00
1454.310, 49257.00
1455.354, 49153.00
1456.398, 49393.00
1457.441, 49526.00
1458.484, 49328.00
1459.527, 49186.00
1460.570, 49449.00
1461.613, 49463.00
1462.655, 49378.00
1463.698, 49444.00
1464.740, 49537.00
1465.782, 49422.25
1466.824, 49259.00
1467.866, 49306.00
1468.907, 49242.00
1469.948, 49267.00
1470.990, 49579.00
1472.031, 49363.00
1473.072, 49181.00
1474.112, 49341.00
1475.153, 49083.00
1476.194, 49364.00
1477.234, 49351.00
1478.274, 49454.00
1479.314, 49501.00
1480.354, 49575.00
1481.393, 49563.88
1482.433, 49068.00
1483.472, 49441.00
1484.511, 49478.00
1485.550, 49275.00
1486.589, 49590.00
1487.628, 49288.00
1488.666, 49438.00
1489.704, 49381.00
1490.743, 49500.00
1491.781, 49398.00
1492.819, 49694.00
1493.856, 49550.00
1494.894, 49668.00
1495.931, 49777.00
1496.968, 49477.00
1498.005, 49505.00
1499.042, 49727.00
1500.079, 49638.00
1501.115, 49742.00
1502.152, 49827.00
1503.188, 49822.00
1504.224, 49797.00
1505.260, 49802.00
1506.296, 49682.00
1507.331, 49726.21
1508.367, 49614.00
1509.402, 49804.00
1510.437, 49674.00
1511.472, 49812.00
1512.507, 50041.00
1513.541, 49922.00
1514.576, 50254.00
1515.610, 49923.00
1516.644, 50303.00
1517.678, 50318.00
1518.712, 50023.00
1519.746, 50328.00
1520.779, 50079.00
1521.813, 50151.00
1522.846, 50280.00
1523.879, 50045.00
1524.912, 50153.00
1525.944, 50393.00
1526.977, 50002.00
1528.009, 50493.00
1529.041, 50509.00
1530.073, 50571.00
1531.105, 50338.00
1532.137, 50426.00
1533.168, 50621.00
1534.200, 50214.00
1535.231, 50593.00
1536.262, 50589.00
1537.293, 50206.00
1538.324, 50460.00
1539.354, 50420.00
1540.385, 50637.00
1541.415, 50522.00
1542.445, 50631.00
1543.475, 50640.00
1544.505, 50577.00
1545.534, 50815.00
1546.564, 50487.00
1547.593, 50690.00
1548.622, 50811.00
1549.651, 50731.00
1550.680, 50569.00
1551.708, 50556.00
1552.737, 50676.00
1553.765, 50743.00
1554.793, 50765.00
1555.821, 50914.00
1556.849, 50899.73
1557.877, 50851.00
1558.904, 50833.00
1559.932, 51079.00
1560.959, 50866.00
1561.986, 51002.00
1563.013, 50670.00
1564.039, 50838.00
1565.066, 50772.00
1566.092, 50985.00
1567.119, 51036.00
1568.145, 51368.00
1569.170, 51237.00
1570.196, 51317.00
##END=



