##NAMES=Inyoite
##RRUFFID=R040161
##IDEAL CHEMISTRY=CaB_3_O_3_(OH)_5_&#183;4H_2_O
##LOCALITY=Kramer deposit, Boron, Kern County, California, USA
##OWNER=RRUFF
##SOURCE=University of Arizona Mineral Museum
##DESCRIPTION=Group of colorless indistinct rounded crystals
##STATUS=The identification of this mineral has been confirmed by X-ray diffraction and chemical analysis
##URL=rruff.info/R040161
##MEASURED CHEMISTRY=Ca_1.00_B_3.00_O_3_(OH)_5_Â·4H_2_O
##PIN_ID=L00092
##ORIENTATION=Laser parallel to (1 0 1). Fiducial mark perpendicular to laser is parallel to b [0 1 0]
93.15500, 9058.000
94.39300, 9075.000
95.63100, 9048.000
96.86900, 9167.000
98.10600, 9394.000
99.34400, 9572.000
100.5810, 9728.000
101.8190, 9970.000
103.0560, 10272.00
104.2930, 10274.00
105.5290, 10613.00
106.7660, 10702.00
108.0020, 10866.00
109.2390, 10815.00
110.4750, 11061.00
111.7110, 10966.00
112.9460, 11242.00
114.1820, 11172.00
115.4170, 11373.00
116.6530, 11559.00
117.8880, 11580.00
119.1230, 11662.00
120.3580, 11886.00
121.5920, 11994.00
122.8270, 12170.00
124.0610, 12511.00
125.2950, 12650.00
126.5290, 12657.00
127.7630, 12443.00
128.9970, 12548.00
130.2300, 12685.00
131.4640, 12934.00
132.6970, 13047.00
133.9300, 13208.00
135.1630, 13574.00
136.3950, 13543.00
137.6280, 14020.00
138.8600, 14706.00
140.0920, 15062.00
141.3240, 15863.00
142.5560, 16816.00
143.7880, 17544.00
145.0190, 19052.00
146.2510, 20672.00
147.4820, 22899.00
148.7130, 25305.00
149.9440, 27279.00
151.1750, 28390.00
152.4050, 27443.00
153.6360, 25123.00
154.8660, 22320.00
156.0960, 19992.00
157.3260, 18489.00
158.5560, 17473.00
159.7850, 16916.00
161.0150, 16464.00
162.2440, 16608.00
163.4730, 16865.00
164.7020, 17239.00
165.9310, 18000.00
167.1590, 19054.00
168.3880, 20594.00
169.6160, 22361.00
170.8440, 24210.00
172.0720, 26688.00
173.3000, 28876.00
174.5280, 31513.00
175.7550, 34227.00
176.9820, 36987.00
178.2100, 40066.00
179.4370, 42524.00
180.6630, 43599.00
181.8900, 43074.00
183.1170, 41005.00
184.3430, 37331.00
185.5690, 33740.00
186.7950, 30322.00
188.0210, 27721.00
189.2470, 25991.00
190.4720, 24711.00
191.6970, 23983.00
192.9230, 23420.00
194.1480, 23028.00
195.3730, 22301.00
196.5970, 21473.00
197.8220, 20577.00
199.0460, 19606.00
200.2700, 18699.00
201.4940, 17958.00
202.7180, 17365.00
203.9420, 16954.00
205.1660, 16707.00
206.3890, 16276.00
207.6120, 16233.00
208.8350, 16000.00
210.0580, 15884.00
211.2810, 15751.00
212.5040, 15495.00
213.7260, 15166.00
214.9480, 15078.00
216.1700, 14726.00
217.3920, 14766.00
218.6140, 14561.00
219.8360, 14425.00
221.0570, 14402.00
222.2790, 14235.00
223.5000, 14298.00
224.7210, 14375.00
225.9410, 14130.00
227.1620, 14198.00
228.3820, 14249.00
229.6030, 14413.00
230.8230, 14277.00
232.0430, 14331.00
233.2630, 14521.00
234.4820, 14553.00
235.7020, 14403.00
236.9210, 14639.00
238.1400, 14756.00
239.3590, 14547.00
240.5780, 14647.00
241.7970, 14653.00
243.0150, 14697.00
244.2340, 14699.00
245.4520, 14945.00
246.6700, 15143.00
247.8880, 15182.00
249.1060, 15400.00
250.3230, 15540.00
251.5400, 15860.00
252.7580, 16163.00
253.9750, 16405.00
255.1920, 16846.00
256.4080, 17326.00
257.6250, 17497.00
258.8410, 17711.00
260.0580, 18006.00
261.2740, 17889.00
262.4900, 17783.00
263.7050, 17772.00
264.9210, 17608.00
266.1360, 17493.00
267.3520, 17207.00
268.5670, 17084.00
269.7820, 16946.00
270.9960, 16667.00
272.2110, 16827.00
273.4250, 16455.00
274.6400, 16417.00
275.8540, 16324.00
277.0680, 16142.00
278.2810, 16072.00
279.4950, 16014.00
280.7090, 15736.00
281.9220, 15806.00
283.1350, 15703.00
284.3480, 15714.00
285.5610, 15520.00
286.7730, 15525.00
287.9860, 15468.00
289.1980, 15600.00
290.4100, 15562.00
291.6220, 15477.00
292.8340, 15596.00
294.0460, 15521.00
295.2570, 15718.00
296.4690, 15734.00
297.6800, 15802.00
298.8910, 15895.00
300.1020, 15803.00
301.3120, 15997.00
302.5230, 16150.00
303.7330, 16186.00
304.9440, 16410.00
306.1540, 16610.00
307.3630, 16788.00
308.5730, 17067.00
309.7830, 17306.59
310.9920, 17493.00
312.2010, 17904.00
313.4100, 18196.00
314.6190, 18587.00
315.8280, 19020.00
317.0370, 19618.00
318.2450, 19985.00
319.4530, 20479.00
320.6610, 20877.00
321.8690, 21540.00
323.0770, 22094.00
324.2850, 22965.00
325.4920, 23118.00
326.6990, 23330.00
327.9060, 23379.00
329.1130, 23237.00
330.3200, 22698.00
331.5270, 22135.00
332.7330, 21454.00
333.9390, 20580.00
335.1450, 19931.00
336.3510, 19275.00
337.5570, 18726.00
338.7630, 18288.00
339.9680, 17873.00
341.1740, 17541.00
342.3790, 17351.00
343.5840, 17116.00
344.7890, 17181.00
345.9930, 17038.00
347.1980, 16961.00
348.4020, 17006.00
349.6060, 16930.00
350.8100, 17106.00
352.0140, 16964.00
353.2180, 17037.00
354.4210, 17160.00
355.6250, 17143.00
356.8280, 16974.00
358.0310, 16877.00
359.2340, 16697.00
360.4360, 16827.00
361.6390, 16816.00
362.8410, 16710.00
364.0430, 17019.00
365.2450, 16721.00
366.4470, 16653.00
367.6490, 16671.00
368.8510, 16880.00
370.0520, 16774.00
371.2530, 16884.00
372.4540, 17003.00
373.6550, 17094.00
374.8560, 17104.00
376.0560, 17107.00
377.2570, 17275.00
378.4570, 17285.00
379.6570, 17400.00
380.8570, 17398.00
382.0570, 17571.00
383.2560, 17522.00
384.4560, 17691.00
385.6550, 17723.61
386.8540, 18026.00
388.0530, 17814.00
389.2520, 18015.00
390.4510, 18054.00
391.6490, 17915.00
392.8470, 17652.00
394.0450, 17666.00
395.2430, 17379.00
396.4410, 17352.00
397.6390, 17571.00
398.8360, 17236.00
400.0340, 17378.00
401.2310, 17509.00
402.4280, 17662.00
403.6250, 17800.00
404.8210, 17850.00
406.0180, 17948.96
407.2140, 18150.00
408.4100, 18023.00
409.6060, 18082.00
410.8020, 18036.00
411.9980, 17697.00
413.1930, 17478.00
414.3890, 17328.00
415.5840, 17183.00
416.7790, 17088.00
417.9740, 17077.00
419.1680, 16926.00
420.3630, 17031.00
421.5570, 16942.00
422.7510, 16722.00
423.9450, 16821.00
425.1390, 16844.00
426.3330, 16795.00
427.5270, 16890.00
428.7200, 16914.00
429.9130, 16730.00
431.1060, 16732.00
432.2990, 16849.00
433.4920, 16837.00
434.6840, 16913.00
435.8770, 16772.00
437.0690, 16801.00
438.2610, 17086.00
439.4530, 16785.00
440.6450, 16974.00
441.8360, 16859.00
443.0280, 16851.00
444.2190, 16953.00
445.4100, 17097.00
446.6010, 17116.00
447.7920, 17073.00
448.9820, 17092.00
450.1730, 17120.00
451.3630, 17151.00
452.5530, 17371.00
453.7430, 17401.78
454.9330, 17510.00
456.1230, 17635.00
457.3120, 17684.00
458.5010, 17860.00
459.6910, 18045.00
460.8800, 18449.00
462.0680, 18716.00
463.2570, 18958.00
464.4460, 19029.00
465.6340, 19066.30
466.8220, 18950.00
468.0100, 18874.00
469.1980, 18708.00
470.3860, 18449.00
471.5730, 18367.00
472.7600, 18124.00
473.9480, 18119.00
475.1350, 17996.35
476.3210, 17839.00
477.5080, 17850.00
478.6950, 17776.00
479.8810, 17702.00
481.0670, 17840.00
482.2530, 17668.00
483.4390, 17853.00
484.6250, 17767.00
485.8100, 17647.00
486.9960, 17625.00
488.1810, 17652.00
489.3660, 17867.00
490.5510, 17898.00
491.7360, 17846.00
492.9200, 17817.00
494.1050, 18031.00
495.2890, 18166.00
496.4730, 18360.00
497.6570, 18488.00
498.8400, 18659.00
500.0240, 18840.00
501.2070, 19088.00
502.3910, 19260.00
503.5740, 19236.00
504.7570, 19518.00
505.9400, 19640.00
507.1220, 19568.00
508.3050, 19724.00
509.4870, 19759.00
510.6690, 19700.00
511.8510, 19588.00
513.0330, 19702.00
514.2140, 19540.00
515.3960, 19624.00
516.5770, 19488.00
517.7580, 19478.00
518.9390, 19679.00
520.1200, 19702.00
521.3010, 19687.00
522.4810, 19555.00
523.6610, 19874.00
524.8420, 19839.00
526.0220, 19766.00
527.2010, 19557.00
528.3810, 19820.00
529.5610, 19819.00
530.7400, 19878.00
531.9190, 19682.00
533.0980, 19820.00
534.2770, 19895.00
535.4560, 19731.00
536.6340, 19858.00
537.8120, 19720.00
538.9910, 19644.00
540.1690, 19520.00
541.3460, 19366.00
542.5240, 19436.00
543.7020, 19471.00
544.8790, 19618.00
546.0560, 19150.00
547.2330, 19390.00
548.4100, 19393.00
549.5870, 19173.00
550.7630, 19323.00
551.9400, 19421.00
553.1160, 19433.00
554.2920, 19615.00
555.4680, 19709.00
556.6440, 19851.00
557.8190, 20027.00
558.9950, 20005.00
560.1700, 19994.00
561.3450, 20254.00
562.5200, 20326.00
563.6950, 20068.00
564.8690, 20079.00
566.0440, 20273.00
567.2180, 20176.00
568.3920, 20269.00
569.5660, 20173.00
570.7400, 20093.00
571.9130, 20322.00
573.0870, 20253.00
574.2600, 20195.00
575.4330, 20366.00
576.6060, 20320.00
577.7790, 20383.00
578.9520, 20573.00
580.1240, 20641.00
581.2960, 20791.00
582.4690, 20856.00
583.6410, 20885.00
584.8120, 21085.00
585.9840, 21259.00
587.1560, 21147.00
588.3270, 21364.00
589.4980, 21701.00
590.6690, 21786.00
591.8400, 22121.00
593.0110, 22240.00
594.1810, 22698.00
595.3510, 23212.00
596.5220, 23456.00
597.6920, 24247.00
598.8610, 24760.00
600.0310, 25714.00
601.2010, 26520.00
602.3700, 27670.00
603.5390, 29076.00
604.7080, 30807.00
605.8770, 32874.00
607.0460, 35283.00
608.2140, 38000.00
609.3830, 41184.00
610.5510, 44854.00
611.7190, 48767.00
612.8870, 52149.00
614.0550, 55268.00
615.2220, 56693.00
616.3900, 56958.00
617.5570, 55058.00
618.7240, 51403.00
619.8910, 46799.00
621.0580, 42439.00
622.2240, 38228.00
623.3910, 35063.00
624.5570, 32249.00
625.7230, 29855.00
626.8890, 28308.00
628.0550, 26913.00
629.2200, 25837.00
630.3860, 25083.00
631.5510, 24374.00
632.7160, 23715.57
633.8810, 23520.00
635.0460, 22840.00
636.2100, 22634.00
637.3750, 22585.00
638.5390, 22352.00
639.7030, 22306.00
640.8670, 22234.00
642.0310, 22121.00
643.1950, 21991.00
644.3580, 21954.00
645.5210, 21895.31
646.6850, 21784.00
647.8480, 21870.00
649.0100, 21782.00
650.1730, 21799.00
651.3350, 21736.00
652.4980, 21828.00
653.6600, 21889.00
654.8220, 21757.00
655.9840, 21640.00
657.1450, 21668.00
658.3070, 21912.00
659.4680, 21868.00
660.6300, 21947.00
661.7910, 21822.00
662.9510, 21939.00
664.1120, 21914.00
665.2730, 21982.00
666.4330, 21894.00
667.5930, 22045.00
668.7530, 21979.00
669.9130, 22128.00
671.0730, 22271.00
672.2320, 22183.00
673.3920, 22433.00
674.5510, 22400.00
675.7100, 22473.00
676.8690, 22591.00
678.0280, 22463.00
679.1860, 22540.00
680.3450, 22794.00
681.5030, 22742.00
682.6610, 22925.00
683.8190, 23016.00
684.9770, 22729.00
686.1340, 22927.00
687.2920, 22678.00
688.4490, 22853.00
689.6060, 22694.00
690.7630, 22829.00
691.9200, 22853.00
693.0760, 22785.00
694.2330, 22806.00
695.3890, 22849.00
696.5450, 22810.00
697.7010, 22769.00
698.8570, 22611.00
700.0130, 22730.00
701.1680, 22583.00
702.3230, 22542.00
703.4780, 22716.00
704.6330, 22740.00
705.7880, 22712.00
706.9430, 22625.00
708.0970, 22509.00
709.2520, 22533.00
710.4060, 22357.00
711.5600, 22300.00
712.7140, 22410.00
713.8670, 22241.00
715.0210, 22572.00
716.1740, 22628.00
717.3270, 22682.00
718.4800, 22535.00
719.6330, 22658.00
720.7860, 22961.00
721.9380, 22946.00
723.0910, 23500.00
724.2430, 23409.00
725.3950, 23970.00
726.5470, 24376.00
727.6980, 24812.00
728.8500, 25214.00
730.0010, 25383.00
731.1530, 25526.00
732.3040, 25353.00
733.4550, 25163.00
734.6050, 24699.00
735.7560, 24035.00
736.9060, 23453.00
738.0560, 23331.00
739.2060, 22954.00
740.3560, 22667.00
741.5060, 22415.00
742.6560, 22065.00
743.8050, 22112.00
744.9540, 21938.00
746.1030, 21952.00
747.2520, 22046.00
748.4010, 21912.00
749.5500, 21955.00
750.6980, 21655.00
751.8460, 21918.00
752.9950, 21529.00
754.1420, 21804.00
755.2900, 21578.00
756.4380, 21847.00
757.5850, 21786.00
758.7330, 21844.00
759.8800, 21751.00
761.0270, 21661.00
762.1730, 21879.00
763.3200, 21671.00
764.4670, 21913.00
765.6130, 21800.00
766.7590, 21705.00
767.9050, 21969.00
769.0510, 21587.00
770.1960, 21946.00
771.3420, 21849.00
772.4870, 21735.00
773.6320, 22047.00
774.7770, 22013.00
775.9220, 21961.00
777.0670, 21805.00
778.2110, 22001.00
779.3560, 21935.00
780.5000, 21989.00
781.6440, 22051.00
782.7880, 21974.00
783.9320, 22031.00
785.0750, 21961.00
786.2180, 22118.00
787.3620, 22044.00
788.5050, 22002.00
789.6480, 22027.00
790.7900, 21947.00
791.9330, 22063.00
793.0750, 22116.00
794.2170, 22326.00
795.3590, 22236.00
796.5010, 22272.00
797.6430, 22083.00
798.7850, 22230.00
799.9260, 22329.00
801.0670, 22384.00
802.2080, 22177.00
803.3490, 22256.00
804.4900, 22127.00
805.6310, 22196.95
806.7710, 22226.00
807.9110, 22284.00
809.0510, 22341.00
810.1910, 22195.00
811.3310, 22015.00
812.4710, 22514.00
813.6100, 22340.00
814.7490, 22503.00
815.8880, 22449.00
817.0270, 22525.00
818.1660, 22447.00
819.3050, 22407.00
820.4430, 22634.00
821.5820, 22483.00
822.7200, 22703.00
823.8580, 22435.00
824.9950, 22590.00
826.1330, 22671.00
827.2710, 22506.00
828.4080, 22792.00
829.5450, 22662.00
830.6820, 22648.00
831.8190, 22714.00
832.9560, 22690.00
834.0920, 22577.00
835.2280, 22722.00
836.3650, 22697.00
837.5010, 22788.00
838.6360, 22622.00
839.7720, 22788.00
840.9080, 22766.00
842.0430, 22776.00
843.1780, 22881.00
844.3130, 22884.00
845.4480, 22957.00
846.5830, 22997.00
847.7170, 23066.00
848.8520, 23147.00
849.9860, 23098.00
851.1200, 22933.00
852.2540, 23142.00
853.3870, 23062.00
854.5210, 23249.00
855.6540, 23270.00
856.7880, 23193.00
857.9210, 23344.00
859.0540, 23457.00
860.1860, 23288.00
861.3190, 23430.00
862.4510, 23619.00
863.5840, 23429.00
864.7160, 23530.00
865.8480, 23690.00
866.9790, 23453.00
868.1110, 23395.00
869.2420, 23490.00
870.3740, 23508.00
871.5050, 23627.00
872.6360, 23786.00
873.7660, 23479.00
874.8970, 23652.00
876.0280, 23662.00
877.1580, 23765.00
878.2880, 23732.00
879.4180, 23830.50
880.5480, 23848.00
881.6770, 23912.00
882.8070, 23830.00
883.9360, 23695.00
885.0650, 23813.00
886.1940, 23505.00
887.3230, 23847.00
888.4520, 23780.00
889.5800, 23665.00
890.7090, 23970.00
891.8370, 23968.00
892.9650, 24038.00
894.0930, 24065.00
895.2200, 23879.00
896.3480, 24168.00
897.4750, 24034.00
898.6020, 24300.00
899.7290, 24348.00
900.8560, 24494.00
901.9830, 24711.00
903.1090, 24692.00
904.2360, 24795.00
905.3620, 24868.00
906.4880, 24825.00
907.6140, 25169.00
908.7400, 24982.00
909.8650, 25245.00
910.9900, 25301.00
912.1160, 25644.00
913.2410, 25633.00
914.3660, 25749.00
915.4900, 26220.00
916.6150, 26182.00
917.7390, 26296.00
918.8640, 26472.00
919.9880, 27023.00
921.1120, 27238.00
922.2350, 27303.00
923.3590, 27985.00
924.4820, 27984.00
925.6060, 28593.00
926.7290, 28643.00
927.8520, 28882.00
928.9740, 29060.00
930.0970, 29077.00
931.2190, 28721.00
932.3420, 28456.00
933.4640, 28263.00
934.5860, 27860.00
935.7080, 27689.00
936.8290, 27491.00
937.9510, 27336.00
939.0720, 27178.00
940.1930, 26953.78
941.3140, 26751.00
942.4350, 26470.00
943.5560, 26437.00
944.6760, 26116.00
945.7960, 25916.00
946.9170, 26000.00
948.0370, 25772.00
949.1560, 25809.00
950.2760, 25665.00
951.3960, 25722.00
952.5150, 25629.00
953.6340, 25703.00
954.7530, 25748.00
955.8720, 25593.00
956.9910, 25560.00
958.1090, 25542.00
959.2280, 25605.00
960.3460, 25617.00
961.4640, 25507.00
962.5820, 25516.00
963.6990, 25433.00
964.8170, 25581.00
965.9340, 25560.00
967.0510, 25699.00
968.1690, 25681.00
969.2850, 25654.00
970.4020, 25548.00
971.5190, 25694.00
972.6350, 25707.00
973.7510, 25762.00
974.8670, 25676.00
975.9830, 25706.00
977.0990, 25730.00
978.2150, 25583.00
979.3300, 25672.00
980.4450, 25773.00
981.5600, 25426.00
982.6750, 25716.00
983.7900, 25669.00
984.9050, 25688.00
986.0190, 25557.00
987.1340, 25447.00
988.2480, 25741.00
989.3620, 25506.00
990.4750, 25545.00
991.5890, 25792.00
992.7020, 25571.00
993.8160, 25624.00
994.9290, 25673.00
996.0420, 25739.00
997.1550, 25512.00
998.2670, 25748.00
999.3800, 25628.00
1000.492, 25852.00
1001.604, 25874.00
1002.716, 25580.00
1003.828, 25850.00
1004.940, 25678.00
1006.051, 25826.00
1007.163, 25728.00
1008.274, 25776.00
1009.385, 25956.00
1010.496, 25909.00
1011.606, 26072.00
1012.717, 26030.00
1013.827, 26079.07
1014.937, 26096.00
1016.047, 26033.00
1017.157, 25991.00
1018.267, 26009.66
1019.377, 26087.00
1020.486, 26004.00
1021.595, 26137.00
1022.704, 26089.00
1023.813, 26132.00
1024.922, 26124.00
1026.030, 26008.00
1027.139, 25969.00
1028.247, 26134.00
1029.355, 25947.00
1030.463, 26391.00
1031.571, 26193.00
1032.678, 26274.00
1033.786, 26026.00
1034.893, 26122.00
1036.000, 26212.00
1037.107, 26318.00
1038.214, 26526.00
1039.321, 26265.00
1040.427, 26526.00
1041.533, 26243.00
1042.639, 26592.00
1043.745, 26615.00
1044.851, 26616.00
1045.957, 26865.00
1047.062, 26545.00
1048.168, 26831.00
1049.273, 26646.00
1050.378, 26733.00
1051.482, 27070.00
1052.587, 26847.00
1053.692, 27130.00
1054.796, 27180.00
1055.900, 27152.00
1057.004, 27127.00
1058.108, 27262.00
1059.212, 27127.00
1060.315, 27476.00
1061.418, 27437.00
1062.522, 27185.00
1063.625, 27542.00
1064.728, 27619.00
1065.830, 27510.00
1066.933, 27750.00
1068.035, 27315.00
1069.137, 27366.00
1070.239, 27553.00
1071.341, 27321.00
1072.443, 27582.00
1073.545, 27488.00
1074.646, 27518.00
1075.747, 27505.00
1076.848, 27548.00
1077.949, 27409.00
1079.050, 27337.00
1080.150, 27366.19
1081.251, 27319.32
1082.351, 27415.00
1083.451, 27426.00
1084.551, 27492.00
1085.651, 27709.00
1086.750, 27504.00
1087.850, 28001.00
1088.949, 27489.00
1090.048, 27590.00
1091.147, 27563.00
1092.246, 27888.00
1093.345, 27753.00
1094.443, 27771.00
1095.541, 27559.00
1096.639, 27555.00
1097.737, 27605.00
1098.835, 27773.00
1099.933, 27659.00
1101.030, 27586.00
1102.128, 27795.00
1103.225, 27818.00
1104.322, 27754.00
1105.419, 27725.00
1106.515, 27963.00
1107.612, 27682.00
1108.708, 28048.00
1109.804, 27841.00
1110.900, 27814.00
1111.996, 27863.00
1113.092, 27949.00
1114.187, 27742.00
1115.283, 27717.00
1116.378, 27993.00
1117.473, 27952.00
1118.568, 27788.00
1119.662, 27941.00
1120.757, 28007.00
1121.851, 27887.00
1122.946, 28058.00
1124.040, 27922.00
1125.134, 28129.00
1126.227, 27817.00
1127.321, 27904.00
1128.414, 27812.00
1129.508, 27607.00
1130.601, 27878.00
1131.693, 28001.00
1132.786, 28012.00
1133.879, 27902.00
1134.971, 27729.00
1136.064, 27988.00
1137.156, 27767.00
1138.248, 27877.00
1139.339, 27879.00
1140.431, 27899.00
1141.522, 28065.00
1142.614, 27869.00
1143.705, 27867.00
1144.796, 28078.00
1145.887, 28064.00
1146.977, 27860.00
1148.068, 28112.00
1149.158, 27959.00
1150.248, 28093.00
1151.338, 28036.00
1152.428, 28296.00
1153.518, 28191.00
1154.607, 28149.00
1155.696, 28002.00
1156.785, 28054.14
1157.874, 28050.00
1158.963, 28182.00
1160.052, 28112.00
1161.141, 28242.00
1162.229, 28350.00
1163.317, 28261.00
1164.405, 28302.00
1165.493, 28309.00
1166.581, 28351.00
1167.668, 28390.00
1168.756, 28327.00
1169.843, 28383.85
1170.930, 28384.34
1172.017, 28438.00
1173.103, 28426.00
1174.190, 28479.00
1175.276, 28511.00
1176.363, 28507.78
1177.449, 28559.05
1178.535, 28574.00
1179.620, 28582.00
1180.706, 28635.10
1181.791, 28669.00
1182.877, 28726.00
1183.962, 28807.00
1185.047, 28865.00
1186.131, 28757.00
1187.216, 28676.00
1188.300, 28761.00
1189.385, 28747.00
1190.469, 29032.00
1191.553, 28928.00
1192.637, 29006.00
1193.720, 28810.00
1194.804, 28888.00
1195.887, 28925.00
1196.970, 29084.00
1198.053, 29070.00
1199.136, 28779.00
1200.219, 28962.00
1201.301, 28834.00
1202.383, 29110.00
1203.465, 29103.00
1204.547, 29301.00
1205.629, 29065.00
1206.711, 29028.00
1207.792, 29161.00
1208.874, 29301.00
1209.955, 29253.00
1211.036, 29305.00
1212.117, 29263.00
1213.198, 29402.00
1214.278, 29342.00
1215.359, 29210.00
1216.439, 29455.00
1217.519, 29301.00
1218.599, 29416.00
1219.678, 29516.00
1220.758, 29385.00
1221.837, 29584.00
1222.917, 29495.00
1223.996, 29675.00
1225.075, 29620.00
1226.153, 29605.00
1227.232, 29682.71
1228.310, 29630.00
1229.389, 29753.00
1230.467, 29833.00
1231.545, 29890.01
1232.622, 29747.00
1233.700, 29861.00
1234.777, 29896.00
1235.855, 29787.00
1236.932, 30077.00
1238.009, 29982.00
1239.086, 30160.00
1240.162, 30159.00
1241.239, 30061.00
1242.315, 30274.00
1243.391, 30350.00
1244.467, 30420.00
1245.543, 30343.00
1246.619, 30428.00
1247.694, 30318.00
1248.769, 30373.00
1249.844, 30637.00
1250.919, 30532.00
1251.994, 30464.00
1253.069, 30582.00
1254.144, 30440.00
1255.218, 30755.00
1256.292, 30618.00
1257.366, 30862.00
1258.440, 30701.00
1259.514, 30692.00
1260.587, 30766.00
1261.661, 30653.00
1262.734, 30875.00
1263.807, 30761.00
1264.880, 30764.00
1265.952, 30670.00
1267.025, 30685.00
1268.097, 30580.00
1269.170, 30746.00
1270.242, 30675.00
1271.314, 30685.00
1272.385, 30488.00
1273.457, 30753.00
1274.528, 30827.00
1275.600, 30552.00
1276.671, 30837.00
1277.742, 30416.00
1278.812, 30679.00
1279.883, 30562.00
1280.954, 30343.00
1282.024, 30588.00
1283.094, 30513.00
1284.164, 30457.00
1285.234, 30451.00
1286.303, 30637.00
1287.373, 30571.00
1288.442, 30097.00
1289.511, 30504.00
1290.580, 29914.00
1291.649, 29999.00
1292.718, 30009.00
1293.786, 30206.00
1294.855, 30403.00
1295.923, 30303.00
1296.991, 30456.00
1298.059, 30681.00
1299.126, 30498.00
1300.194, 30709.00
1301.261, 30592.00
1302.328, 30799.00
1303.395, 31024.00
1304.462, 31017.00
1305.529, 31374.00
1306.596, 31051.00
1307.662, 31206.00
1308.728, 31442.00
1309.794, 31447.00
1310.860, 31411.00
1311.926, 31268.00
1312.991, 31226.00
1314.057, 31603.00
1315.122, 31736.00
1316.187, 31818.00
1317.252, 31681.00
1318.317, 31684.00
1319.381, 31663.00
1320.446, 31833.00
1321.510, 31820.00
1322.574, 31911.00
1323.638, 31741.00
1324.702, 31989.00
1325.766, 31747.00
1326.829, 31881.00
1327.892, 31845.00
1328.956, 31678.00
1330.019, 31786.00
1331.081, 31470.00
1332.144, 31611.00
1333.206, 31819.00
1334.269, 31720.00
1335.331, 31695.00
1336.393, 31931.00
1337.455, 31686.00
1338.516, 31390.00
1339.578, 31856.00
1340.639, 31746.00
1341.701, 31753.00
1342.762, 31757.00
1343.822, 31734.00
1344.883, 31706.00
1345.944, 31587.00
1347.004, 31779.00
1348.064, 31678.00
1349.124, 31815.00
1350.184, 31988.00
1351.244, 31796.00
1352.304, 31778.00
1353.363, 31814.00
1354.422, 31826.00
1355.481, 31718.00
1356.540, 31780.65
1357.599, 31732.00
1358.657, 31807.00
1359.716, 31975.00
1360.774, 31986.00
1361.832, 31956.00
1362.890, 32010.00
1363.948, 31949.00
1365.006, 31877.00
1366.063, 32328.00
1367.120, 31996.00
1368.178, 32227.00
1369.234, 31967.00
1370.291, 32234.00
1371.348, 32158.00
1372.404, 32417.00
1373.461, 32196.00
1374.517, 32102.00
1375.573, 32403.00
1376.629, 32178.00
1377.684, 32168.00
1378.740, 32287.00
1379.795, 32213.00
1380.850, 32237.00
1381.905, 32437.00
1382.960, 32447.00
1384.015, 32325.00
1385.070, 32213.00
1386.124, 32547.00
1387.178, 32205.00
1388.232, 32251.00
1389.286, 32659.00
1390.340, 32339.00
1391.393, 32194.00
1392.447, 32512.00
1393.500, 32315.00
1394.553, 32682.00
1395.606, 32576.00
1396.659, 32352.00
1397.711, 32471.00
1398.764, 32362.00
1399.816, 32622.00
1400.868, 32621.00
1401.920, 32653.00
1402.972, 32612.00
1404.023, 32713.00
1405.075, 32761.00
1406.126, 32789.33
1407.177, 32838.00
1408.228, 32903.00
1409.279, 32976.00
1410.330, 33077.75
1411.380, 33045.35
1412.431, 33040.00
1413.481, 33029.00
1414.531, 32787.00
1415.580, 32865.00
1416.630, 32913.00
1417.680, 33125.00
1418.729, 33255.00
1419.778, 33249.18
1420.827, 33151.00
1421.876, 33253.00
1422.925, 33127.00
1423.973, 33166.00
1425.022, 33308.00
1426.070, 33136.00
1427.118, 33186.00
1428.166, 33394.00
1429.214, 33111.00
1430.261, 33201.00
1431.309, 33322.00
1432.356, 33364.00
1433.403, 33543.00
1434.450, 33569.00
1435.497, 33465.00
1436.543, 33601.00
1437.590, 33405.00
1438.636, 33737.00
1439.682, 33402.00
1440.728, 33690.00
1441.774, 33690.00
1442.819, 33498.00
1443.865, 33791.00
1444.910, 33710.00
1445.955, 33696.00
1447.000, 33451.00
1448.045, 33636.00
1449.090, 33874.00
1450.134, 33486.00
1451.178, 33956.00
1452.223, 33597.00
1453.267, 33651.00
1454.310, 33696.00
1455.354, 33717.00
1456.398, 33792.00
1457.441, 33841.00
1458.484, 34036.00
1459.527, 34205.00
1460.570, 34044.00
1461.613, 34177.30
1462.655, 34156.00
1463.698, 34031.00
1464.740, 34028.00
1465.782, 33964.23
1466.824, 33850.00
1467.866, 33976.00
1468.907, 33828.00
1469.948, 34045.00
1470.990, 33973.00
1472.031, 34044.00
1473.072, 34077.00
1474.112, 33932.00
1475.153, 34285.00
1476.194, 34230.00
1477.234, 34085.00
1478.274, 34144.00
1479.314, 34344.00
1480.354, 34366.00
1481.393, 34214.00
1482.433, 34352.00
1483.472, 34096.00
1484.511, 34213.00
1485.550, 34347.00
1486.589, 34250.00
1487.628, 34355.00
1488.666, 34342.00
1489.704, 34638.00
1490.743, 34339.00
1491.781, 34217.00
1492.819, 34406.00
1493.856, 34276.00
1494.894, 34242.00
1495.931, 34336.00
1496.968, 34457.00
1498.005, 34438.00
1499.042, 34429.00
1500.079, 34318.00
1501.115, 34561.00
1502.152, 34492.00
1503.188, 34685.00
1504.224, 34723.00
1505.260, 34561.00
1506.296, 34548.00
1507.331, 34459.00
1508.367, 34604.00
1509.402, 34715.00
1510.437, 34502.00
1511.472, 34574.00
1512.507, 34484.00
1513.541, 34559.00
1514.576, 34688.00
1515.610, 34734.00
1516.644, 34648.00
1517.678, 34815.00
1518.712, 34704.00
1519.746, 34872.00
1520.779, 34523.00
1521.813, 34938.00
1522.846, 34795.00
1523.879, 34844.00
1524.912, 35017.00
1525.944, 34928.00
1526.977, 35122.00
1528.009, 34725.00
1529.041, 34834.00
1530.073, 35044.00
1531.105, 34935.00
1532.137, 35037.00
1533.168, 35068.00
1534.200, 35001.00
1535.231, 35129.00
1536.262, 34911.00
1537.293, 35274.00
1538.324, 35095.00
1539.354, 35218.00
1540.385, 35162.00
1541.415, 35159.44
1542.445, 35308.00
1543.475, 35242.00
1544.505, 35168.00
1545.534, 35310.00
1546.564, 34988.00
1547.593, 35249.00
1548.622, 35231.00
1549.651, 35227.00
1550.680, 35119.00
1551.708, 34957.00
1552.737, 35431.00
1553.765, 35306.00
1554.793, 34976.00
1555.821, 35412.00
1556.849, 35248.00
1557.877, 35363.00
1558.904, 35408.00
1559.932, 35303.00
1560.959, 35558.00
1561.986, 35398.00
1563.013, 35231.00
1564.039, 35323.00
1565.066, 35388.00
1566.092, 35431.00
1567.119, 35376.00
1568.145, 35388.00
1569.170, 35632.00
1570.196, 35361.00
##END=



