##NAMES=Natrolite
##RRUFFID=R060561
##IDEAL CHEMISTRY=Na_2_(Si_3_Al_2_)O_10_&#183;2H_2_O
##LOCALITY=California, USA
##OWNER=RRUFF
##SOURCE=Gemological Institute of America
##DESCRIPTION=White fragment
##STATUS=The identification of this mineral has been confirmed by X-ray diffraction and chemical analysis
##URL=rruff.info/R060561
##MEASURED CHEMISTRY=Na_2.00_(Si_3.00_Al_2.00_)O_10_Â·2H_2_O
##PIN_ID=L00681
##ORIENTATION=Laser parallel to a* (1 0 0). Fiducial mark perpendicular to laser is parallel to -b [0 -1 0]
89.70800, 817.0000
90.94300, 829.0000
92.17800, 842.0000
93.41300, 869.0000
94.64800, 884.0000
95.88300, 958.0000
97.11800, 1000.000
98.35200, 1069.000
99.58700, 1184.000
100.8210, 1316.000
102.0550, 1453.000
103.2890, 1673.000
104.5220, 2009.000
105.7560, 2324.000
106.9890, 2562.000
108.2230, 2856.000
109.4560, 3253.000
110.6890, 3644.000
111.9210, 4200.000
113.1540, 4631.000
114.3870, 5132.000
115.6190, 5602.000
116.8510, 5896.000
118.0830, 6222.000
119.3150, 6893.000
120.5470, 7615.000
121.7780, 8001.000
123.0100, 8350.000
124.2410, 8550.000
125.4720, 8547.000
126.7030, 8622.000
127.9340, 9225.000
129.1640, 9873.000
130.3950, 10457.00
131.6250, 11634.00
132.8550, 13170.00
134.0850, 14840.00
135.3150, 16757.00
136.5450, 18736.00
137.7750, 20129.00
139.0040, 21863.00
140.2330, 24041.00
141.4620, 26622.00
142.6910, 29286.00
143.9200, 31595.00
145.1490, 32888.00
146.3770, 32950.00
147.6060, 31883.00
148.8340, 30188.00
150.0620, 27959.00
151.2900, 26050.00
152.5170, 24236.00
153.7450, 23281.00
154.9720, 23257.00
156.2000, 23486.00
157.4270, 23909.00
158.6540, 25146.00
159.8810, 26620.00
161.1070, 28432.00
162.3340, 30617.00
163.5600, 32518.00
164.7860, 32889.00
166.0120, 32468.00
167.2380, 31021.00
168.4640, 28036.00
169.6890, 25501.00
170.9150, 22876.00
172.1400, 21121.00
173.3650, 19450.00
174.5900, 18614.00
175.8150, 17657.00
177.0400, 16977.00
178.2640, 16201.00
179.4880, 15702.00
180.7130, 15333.00
181.9370, 15074.00
183.1600, 14965.00
184.3840, 15195.00
185.6080, 15480.00
186.8310, 15621.00
188.0540, 15839.00
189.2770, 15981.00
190.5000, 15860.00
191.7230, 16112.00
192.9460, 16249.00
194.1680, 16810.00
195.3910, 17568.00
196.6130, 18703.00
197.8350, 20166.00
199.0570, 21464.00
200.2780, 23095.00
201.5000, 24292.00
202.7210, 25839.00
203.9420, 27419.00
205.1640, 28658.00
206.3840, 30295.00
207.6050, 31690.00
208.8260, 32197.00
210.0460, 31597.00
211.2670, 29524.00
212.4870, 27004.00
213.7070, 24235.00
214.9270, 21388.00
216.1460, 19202.00
217.3660, 17562.00
218.5850, 16176.00
219.8050, 15090.00
221.0240, 14315.00
222.2430, 13900.00
223.4610, 13260.00
224.6800, 13280.00
225.8980, 13003.00
227.1170, 12960.00
228.3350, 13152.00
229.5530, 13434.00
230.7710, 13996.00
231.9880, 14792.00
233.2060, 15799.00
234.4230, 16577.00
235.6400, 17215.00
236.8570, 18141.00
238.0740, 19122.00
239.2910, 20693.00
240.5080, 22372.00
241.7240, 23565.00
242.9400, 23828.00
244.1570, 22504.00
245.3730, 20558.00
246.5880, 18269.00
247.8040, 16135.00
249.0190, 14550.00
250.2350, 13493.00
251.4500, 12967.00
252.6650, 12516.00
253.8800, 12314.00
255.0950, 12373.00
256.3090, 12268.00
257.5240, 12433.00
258.7380, 12623.00
259.9520, 12890.00
261.1660, 13478.00
262.3800, 13761.00
263.5930, 14229.00
264.8070, 14491.00
266.0200, 14952.00
267.2330, 15471.00
268.4460, 15876.00
269.6590, 16460.00
270.8720, 16822.00
272.0850, 17075.00
273.2970, 16600.00
274.5090, 15868.00
275.7210, 15335.00
276.9330, 14852.00
278.1450, 13559.00
279.3570, 13007.00
280.5680, 12649.00
281.7790, 12578.00
282.9910, 12228.00
284.2020, 12256.00
285.4120, 12205.00
286.6230, 12287.00
287.8340, 12383.18
289.0440, 12547.00
290.2540, 12720.00
291.4640, 12918.00
292.6740, 13223.00
293.8840, 13741.00
295.0940, 14513.00
296.3030, 15514.00
297.5120, 16698.00
298.7210, 18007.00
299.9300, 19286.00
301.1390, 20327.00
302.3480, 21594.00
303.5560, 22984.00
304.7650, 25166.00
305.9730, 26888.00
307.1810, 27535.00
308.3890, 26813.00
309.5970, 24526.00
310.8040, 21634.00
312.0120, 18870.00
313.2190, 16705.00
314.4260, 14922.00
315.6330, 13937.00
316.8400, 13295.00
318.0460, 12982.00
319.2530, 12477.00
320.4590, 12444.00
321.6650, 12303.00
322.8710, 12301.00
324.0770, 12389.00
325.2830, 12168.00
326.4880, 12223.00
327.6940, 12329.00
328.8990, 12318.00
330.1040, 12245.00
331.3090, 12230.00
332.5140, 12273.46
333.7180, 12393.00
334.9230, 12430.00
336.1270, 12385.00
337.3310, 12537.00
338.5350, 12518.00
339.7390, 12455.00
340.9430, 12523.00
342.1460, 12554.00
343.3500, 12571.00
344.5530, 12686.00
345.7560, 12791.00
346.9590, 13015.00
348.1620, 13191.00
349.3640, 13464.00
350.5670, 13617.00
351.7690, 13859.00
352.9710, 14155.00
354.1730, 14326.00
355.3750, 14751.00
356.5760, 14881.00
357.7780, 15135.00
358.9790, 15445.00
360.1800, 15562.00
361.3810, 15436.00
362.5820, 15198.00
363.7830, 14748.00
364.9830, 14282.00
366.1840, 13825.00
367.3840, 13639.00
368.5840, 13071.00
369.7840, 13075.00
370.9840, 12879.00
372.1830, 12733.00
373.3830, 12584.00
374.5820, 12363.00
375.7810, 12429.00
376.9800, 12528.00
378.1790, 12408.00
379.3780, 12291.00
380.5760, 12347.00
381.7750, 12483.00
382.9730, 12585.00
384.1710, 12476.00
385.3690, 12450.00
386.5660, 12503.00
387.7640, 12329.00
388.9610, 12522.00
390.1590, 12562.00
391.3560, 12544.00
392.5530, 12614.00
393.7500, 12776.00
394.9460, 12750.00
396.1430, 12878.00
397.3390, 12831.00
398.5350, 13072.00
399.7310, 13025.00
400.9270, 13201.00
402.1230, 13395.00
403.3180, 13396.00
404.5140, 13469.00
405.7090, 13710.00
406.9040, 13813.00
408.0990, 14133.00
409.2930, 14249.00
410.4880, 14449.00
411.6820, 14818.00
412.8770, 15029.00
414.0710, 15197.00
415.2650, 15664.00
416.4590, 15968.00
417.6520, 16285.00
418.8460, 17004.00
420.0390, 18005.00
421.2320, 18955.00
422.4250, 20208.00
423.6180, 21971.00
424.8110, 24130.00
426.0030, 26438.00
427.1960, 29203.00
428.3880, 32036.00
429.5800, 35296.00
430.7720, 38851.00
431.9640, 42535.00
433.1550, 46101.00
434.3470, 49461.00
435.5380, 51921.00
436.7290, 53308.00
437.9200, 53733.00
439.1110, 53119.00
440.3020, 52073.00
441.4920, 51096.00
442.6820, 50059.00
443.8730, 49657.00
445.0630, 49479.00
446.2530, 49242.00
447.4420, 48722.00
448.6320, 46098.00
449.8210, 42384.00
451.0100, 37799.00
452.2000, 33127.00
453.3880, 28897.00
454.5770, 24914.00
455.7660, 22270.00
456.9540, 20126.12
458.1430, 18716.00
459.3310, 17775.00
460.5190, 16941.00
461.7070, 16483.00
462.8940, 15978.00
464.0820, 15596.00
465.2690, 15444.00
466.4560, 15212.00
467.6430, 15047.00
468.8300, 15024.00
470.0170, 14686.00
471.2040, 14828.00
472.3900, 14619.00
473.5760, 14514.00
474.7620, 14722.00
475.9480, 14679.00
477.1340, 14695.00
478.3200, 14675.00
479.5050, 14647.00
480.6900, 14798.00
481.8750, 14885.00
483.0600, 14904.00
484.2450, 15134.00
485.4300, 14953.00
486.6140, 15096.00
487.7990, 15291.00
488.9830, 15456.00
490.1670, 15733.00
491.3510, 15874.00
492.5350, 15892.00
493.7180, 16207.00
494.9020, 16226.00
496.0850, 16187.00
497.2680, 16252.00
498.4510, 16297.41
499.6340, 16424.00
500.8160, 16527.00
501.9990, 16709.11
503.1810, 16820.00
504.3630, 17132.00
505.5450, 17358.00
506.7270, 17588.00
507.9090, 17986.00
509.0900, 18414.00
510.2720, 18909.00
511.4530, 19248.00
512.6340, 19977.00
513.8150, 20579.00
514.9950, 21066.00
516.1760, 22006.00
517.3560, 22747.00
518.5370, 24140.00
519.7170, 25260.00
520.8970, 26585.00
522.0770, 28272.00
523.2560, 30380.00
524.4360, 32599.00
525.6150, 35956.00
526.7940, 38968.00
527.9730, 41644.00
529.1520, 45202.00
530.3310, 48676.00
531.5090, 52224.00
532.6870, 54775.00
533.8660, 55655.00
535.0440, 54198.00
536.2210, 50517.00
537.3990, 45018.00
538.5770, 39335.00
539.7540, 34186.00
540.9310, 29952.00
542.1080, 27075.00
543.2850, 24494.00
544.4620, 22651.00
545.6390, 21415.00
546.8150, 20237.00
547.9920, 19539.00
549.1680, 18868.00
550.3440, 18552.00
551.5190, 18034.00
552.6950, 17609.00
553.8710, 17206.00
555.0460, 17266.00
556.2210, 16905.00
557.3960, 16783.00
558.5710, 16599.00
559.7460, 16375.00
560.9200, 16228.00
562.0950, 16070.00
563.2690, 16258.00
564.4430, 15866.00
565.6170, 16043.00
566.7910, 15943.00
567.9640, 15910.00
569.1380, 15864.00
570.3110, 15907.00
571.4840, 15851.39
572.6570, 15911.00
573.8300, 15812.00
575.0030, 15881.00
576.1750, 15906.00
577.3470, 15926.00
578.5200, 15993.00
579.6920, 15867.00
580.8630, 15845.00
582.0350, 15983.00
583.2070, 15926.00
584.3780, 16142.00
585.5490, 16113.00
586.7200, 16196.00
587.8910, 16191.00
589.0620, 16476.00
590.2330, 16623.00
591.4030, 16676.00
592.5730, 16911.00
593.7430, 17032.00
594.9130, 17532.00
596.0830, 17685.00
597.2530, 17893.00
598.4220, 17739.00
599.5920, 17876.00
600.7610, 17888.00
601.9300, 17561.00
603.0990, 17444.00
604.2670, 17481.00
605.4360, 17051.00
606.6040, 16921.00
607.7720, 16726.00
608.9400, 16544.00
610.1080, 16326.00
611.2760, 16054.00
612.4440, 16096.00
613.6110, 16167.00
614.7780, 15997.00
615.9450, 15980.00
617.1120, 15790.00
618.2790, 15732.00
619.4460, 15843.00
620.6120, 16012.00
621.7780, 15873.00
622.9450, 15860.00
624.1110, 15655.00
625.2760, 15893.00
626.4420, 15586.00
627.6080, 15700.00
628.7730, 15678.00
629.9380, 15857.00
631.1030, 15785.00
632.2680, 15929.00
633.4330, 15870.00
634.5970, 15824.00
635.7620, 15848.00
636.9260, 15797.00
638.0900, 15793.00
639.2540, 15831.00
640.4180, 15919.00
641.5810, 15931.00
642.7450, 15958.00
643.9080, 15985.00
645.0710, 16006.00
646.2340, 15938.00
647.3970, 16014.00
648.5590, 16104.00
649.7220, 16078.00
650.8840, 15975.00
652.0460, 16012.00
653.2080, 16218.00
654.3700, 16305.00
655.5320, 16564.00
656.6930, 16464.00
657.8550, 16301.00
659.0160, 16579.00
660.1770, 16578.00
661.3380, 16553.00
662.4990, 16682.00
663.6590, 16722.00
664.8200, 16690.00
665.9800, 16869.00
667.1400, 17008.00
668.3000, 16891.00
669.4600, 16839.00
670.6190, 16774.00
671.7790, 16896.00
672.9380, 16876.00
674.0970, 17069.00
675.2560, 17023.00
676.4150, 16911.00
677.5740, 17138.00
678.7320, 17182.00
679.8900, 17242.00
681.0490, 17427.00
682.2070, 17673.00
683.3640, 17702.00
684.5220, 17693.00
685.6800, 17943.00
686.8370, 18151.00
687.9940, 18462.00
689.1510, 18417.00
690.3080, 18931.00
691.4650, 19226.00
692.6220, 19521.00
693.7780, 20084.00
694.9340, 20385.00
696.0900, 20972.00
697.2460, 21312.00
698.4020, 21954.00
699.5580, 22213.00
700.7130, 23099.00
701.8680, 23299.00
703.0240, 23734.00
704.1790, 23845.00
705.3330, 23742.00
706.4880, 23659.00
707.6430, 23409.00
708.7970, 22825.00
709.9510, 22245.00
711.1050, 21444.00
712.2590, 21098.00
713.4130, 20782.00
714.5660, 20454.00
715.7200, 20148.00
716.8730, 20079.00
718.0260, 20143.00
719.1790, 19760.00
720.3320, 19869.00
721.4840, 19997.00
722.6370, 19937.00
723.7890, 20130.00
724.9410, 20044.00
726.0930, 20186.00
727.2450, 19859.00
728.3960, 19915.00
729.5480, 19703.00
730.6990, 19466.00
731.8500, 18960.00
733.0010, 18795.00
734.1520, 18590.00
735.3030, 18204.00
736.4530, 17986.00
737.6040, 17812.00
738.7540, 17721.00
739.9040, 17568.00
741.0540, 17587.00
742.2030, 17459.00
743.3530, 17396.00
744.5020, 17420.00
745.6520, 17308.00
746.8010, 17219.00
747.9490, 17157.00
749.0980, 17125.36
750.2470, 17121.00
751.3950, 17164.00
752.5440, 17183.00
753.6920, 17316.00
754.8400, 17259.00
755.9870, 17362.00
757.1350, 17318.00
758.2820, 17199.00
759.4300, 17175.00
760.5770, 17203.00
761.7240, 17357.00
762.8710, 17277.95
764.0170, 17286.29
765.1640, 17235.00
766.3100, 17240.00
767.4560, 17252.00
768.6020, 17269.83
769.7480, 17005.00
770.8940, 17344.00
772.0400, 17419.00
773.1850, 17443.00
774.3300, 17144.00
775.4750, 17340.00
776.6200, 17371.00
777.7650, 17303.00
778.9090, 17424.00
780.0540, 17304.00
781.1980, 17358.00
782.3420, 17455.00
783.4860, 17500.00
784.6300, 17325.00
785.7740, 17575.00
786.9170, 17409.00
788.0600, 17439.00
789.2030, 17497.00
790.3460, 17587.00
791.4890, 17543.00
792.6320, 17675.00
793.7740, 17768.00
794.9170, 17589.00
796.0590, 17716.00
797.2010, 17806.00
798.3430, 17735.00
799.4850, 17776.00
800.6260, 17710.00
801.7670, 17747.00
802.9090, 17971.00
804.0500, 17888.00
805.1910, 17916.00
806.3310, 17933.00
807.4720, 17920.00
808.6120, 17849.00
809.7530, 17903.00
810.8930, 17789.00
812.0330, 18013.00
813.1720, 18096.00
814.3120, 18013.00
815.4510, 18152.00
816.5910, 18118.00
817.7300, 18210.00
818.8690, 18019.00
820.0080, 18033.00
821.1460, 18169.00
822.2850, 18150.00
823.4230, 18182.00
824.5610, 18109.00
825.6990, 18309.00
826.8370, 18402.00
827.9750, 18378.00
829.1120, 18337.00
830.2500, 18334.00
831.3870, 18351.42
832.5240, 18487.00
833.6610, 18438.00
834.7980, 18490.00
835.9340, 18578.00
837.0700, 18539.00
838.2070, 18560.00
839.3430, 18649.00
840.4790, 18551.00
841.6140, 18537.00
842.7500, 18604.00
843.8850, 18523.00
845.0210, 18547.95
846.1560, 18664.00
847.2910, 18538.00
848.4260, 18654.00
849.5600, 18673.00
850.6950, 18707.00
851.8290, 18621.00
852.9630, 18686.00
854.0970, 18837.00
855.2310, 18659.00
856.3650, 18826.00
857.4980, 18691.00
858.6310, 18756.00
859.7650, 18756.00
860.8980, 18780.00
862.0310, 18829.00
863.1630, 18873.00
864.2960, 18999.00
865.4280, 18789.00
866.5600, 18966.00
867.6920, 18900.00
868.8240, 18967.00
869.9560, 19022.00
871.0880, 19041.00
872.2190, 18987.00
873.3500, 19050.00
874.4810, 18978.00
875.6120, 19065.00
876.7430, 19318.00
877.8740, 19035.00
879.0040, 19084.00
880.1340, 19012.00
881.2650, 19234.00
882.3950, 19034.00
883.5240, 19014.00
884.6540, 19178.00
885.7830, 19002.00
886.9130, 19108.00
888.0420, 19133.00
889.1710, 19009.00
890.3000, 19122.00
891.4280, 19111.00
892.5570, 19144.00
893.6850, 19194.00
894.8130, 19269.00
895.9420, 19314.00
897.0690, 19281.00
898.1970, 19267.00
899.3250, 19173.00
900.4520, 19133.00
901.5790, 19331.00
902.7060, 19197.00
903.8330, 19291.00
904.9600, 19339.00
906.0870, 19302.00
907.2130, 19368.00
908.3390, 19215.00
909.4650, 19403.00
910.5910, 19620.00
911.7170, 19539.00
912.8430, 19534.00
913.9680, 19341.00
915.0930, 19425.00
916.2180, 19507.00
917.3430, 19679.00
918.4680, 19773.00
919.5930, 19490.00
920.7170, 19680.00
921.8420, 19644.93
922.9660, 19653.00
924.0900, 19746.00
925.2140, 19729.00
926.3370, 19795.00
927.4610, 19789.00
928.5840, 19738.00
929.7070, 19762.00
930.8310, 19805.00
931.9530, 19789.00
933.0760, 19799.88
934.1990, 19842.73
935.3210, 19778.00
936.4430, 19966.00
937.5650, 19962.00
938.6870, 20110.00
939.8090, 20041.00
940.9310, 20201.00
942.0520, 20176.00
943.1730, 20340.00
944.2940, 20314.00
945.4150, 20436.00
946.5360, 20621.00
947.6570, 20662.00
948.7770, 20794.00
949.8970, 20833.00
951.0180, 20991.00
952.1370, 21127.00
953.2570, 21437.00
954.3770, 21565.00
955.4960, 22021.00
956.6160, 22507.00
957.7350, 22878.00
958.8540, 23535.00
959.9730, 24248.00
961.0910, 25208.00
962.2100, 26033.00
963.3280, 26983.00
964.4460, 28158.00
965.5640, 28736.00
966.6820, 29628.00
967.8000, 30143.00
968.9180, 30251.00
970.0350, 29918.00
971.1520, 28814.00
972.2690, 27708.00
973.3860, 26208.00
974.5030, 25055.00
975.6190, 23967.00
976.7360, 23297.00
977.8520, 22644.00
978.9680, 22242.00
980.0840, 22133.00
981.2000, 21889.00
982.3160, 22047.00
983.4310, 21778.00
984.5460, 22026.00
985.6610, 22038.00
986.7760, 22029.00
987.8910, 22195.00
989.0060, 22409.00
990.1200, 22659.00
991.2350, 22950.00
992.3490, 23226.00
993.4630, 23572.00
994.5760, 23856.00
995.6900, 24312.00
996.8040, 24380.00
997.9170, 24158.00
999.0300, 24020.00
1000.143, 23526.00
1001.256, 23281.00
1002.369, 22750.00
1003.481, 22407.00
1004.594, 22265.00
1005.706, 22088.00
1006.818, 21877.00
1007.930, 21869.00
1009.042, 21800.00
1010.153, 21921.00
1011.264, 21957.00
1012.376, 21982.00
1013.487, 21950.00
1014.598, 21999.00
1015.708, 22185.00
1016.819, 22311.00
1017.929, 22647.00
1019.040, 22933.00
1020.150, 23544.00
1021.260, 24066.00
1022.370, 24363.00
1023.479, 25335.00
1024.589, 25655.00
1025.698, 26110.00
1026.807, 26307.00
1027.916, 25927.00
1029.025, 25526.00
1030.133, 24926.00
1031.242, 24303.00
1032.350, 23824.00
1033.458, 23533.00
1034.566, 23343.00
1035.674, 23193.00
1036.782, 23132.67
1037.890, 23047.00
1038.997, 23160.00
1040.104, 23311.00
1041.211, 23376.00
1042.318, 23484.00
1043.425, 23439.00
1044.531, 23733.00
1045.638, 23854.00
1046.744, 24376.00
1047.850, 24278.00
1048.956, 24514.00
1050.061, 24850.00
1051.167, 24770.00
1052.272, 24926.00
1053.378, 24822.00
1054.483, 24742.00
1055.588, 24667.00
1056.692, 24174.00
1057.797, 24283.00
1058.901, 24187.00
1060.006, 24147.00
1061.110, 24334.00
1062.214, 24275.00
1063.318, 24237.00
1064.421, 24389.00
1065.525, 24537.00
1066.628, 24715.00
1067.731, 24806.00
1068.834, 24846.00
1069.937, 25179.00
1071.040, 25348.00
1072.142, 25379.00
1073.244, 25296.00
1074.347, 24962.00
1075.449, 24875.00
1076.550, 24813.00
1077.652, 24723.00
1078.754, 24720.07
1079.855, 24847.00
1080.956, 24760.00
1082.057, 24921.00
1083.158, 25029.00
1084.259, 25085.00
1085.359, 25198.00
1086.460, 25256.00
1087.560, 25380.00
1088.660, 25327.00
1089.760, 25437.00
1090.860, 25556.00
1091.959, 25405.00
1093.059, 25277.00
1094.158, 25044.00
1095.257, 24947.00
1096.356, 24572.00
1097.455, 24354.00
1098.553, 24057.00
1099.652, 24097.00
1100.750, 23872.00
1101.848, 23744.00
1102.946, 23397.00
1104.044, 23423.00
1105.141, 23389.00
1106.239, 23195.00
1107.336, 23136.00
1108.433, 23328.00
1109.530, 23124.00
1110.627, 23272.00
1111.724, 23127.00
1112.820, 23222.00
1113.917, 23300.00
1115.013, 23377.00
1116.109, 23320.00
1117.205, 23443.00
1118.300, 23406.00
1119.396, 23387.00
1120.491, 23529.00
1121.586, 23478.00
1122.681, 23602.00
1123.776, 23632.00
1124.871, 23456.00
1125.965, 23546.00
1127.060, 23508.00
1128.154, 23549.00
1129.248, 23601.00
1130.342, 23498.62
1131.436, 23518.00
1132.529, 23270.00
1133.623, 23369.00
1134.716, 23167.00
1135.809, 23238.00
1136.902, 23267.67
1137.995, 23325.89
1139.087, 23350.00
1140.180, 23351.43
1141.272, 23477.00
1142.364, 23375.00
1143.456, 23340.00
1144.548, 23438.00
1145.639, 23485.00
1146.731, 23429.00
1147.822, 23363.00
1148.913, 23430.00
1150.004, 23694.00
1151.095, 23489.00
1152.186, 23116.00
1153.276, 23548.00
1154.366, 23575.00
1155.457, 23796.00
1156.546, 23498.00
1157.636, 23534.00
1158.726, 23488.00
1159.815, 23535.00
1160.905, 23517.00
1161.994, 23528.00
1163.083, 23483.00
1164.172, 23602.00
1165.261, 23615.00
1166.349, 23785.00
1167.437, 23387.00
1168.526, 23507.00
1169.614, 23682.00
1170.702, 23610.00
1171.789, 23760.00
1172.877, 23578.00
1173.964, 23584.00
1175.051, 23653.00
1176.138, 23675.00
1177.225, 23738.50
1178.312, 23745.14
1179.399, 23831.00
1180.485, 23816.00
1181.571, 23769.00
1182.657, 23933.00
1183.743, 23692.00
1184.829, 23800.00
1185.915, 23805.00
1187.000, 23837.00
1188.085, 23999.00
1189.171, 24072.00
1190.255, 23944.00
1191.340, 24068.00
1192.425, 24175.00
1193.509, 24063.00
1194.594, 23932.00
1195.678, 24147.00
1196.762, 24003.00
1197.846, 24129.00
1198.929, 24114.00
1200.013, 24167.00
1201.096, 24329.00
1202.179, 23956.00
1203.262, 24304.00
1204.345, 24111.00
1205.428, 24198.00
1206.510, 24395.00
1207.593, 24284.00
1208.675, 24206.00
1209.757, 24310.00
1210.839, 24421.00
1211.920, 24244.00
1213.002, 24451.00
1214.083, 24406.00
1215.164, 24291.00
1216.245, 24484.00
1217.326, 24487.00
1218.407, 24506.00
1219.488, 24532.00
1220.568, 24324.00
1221.648, 24287.00
1222.728, 24445.00
1223.808, 24556.00
1224.888, 24433.00
1225.967, 24570.00
1227.047, 24606.00
1228.126, 24654.00
1229.205, 24759.00
1230.284, 24770.65
1231.363, 24790.29
1232.441, 24793.00
1233.520, 24786.00
1234.598, 24704.00
1235.676, 24715.00
1236.754, 24814.00
1237.832, 24654.00
1238.910, 24675.00
1239.987, 24531.00
1241.064, 24669.00
1242.141, 24729.00
1243.218, 24743.00
1244.295, 24807.00
1245.372, 24826.85
1246.448, 24874.02
1247.525, 24871.00
1248.601, 24956.00
1249.677, 24976.00
1250.753, 24996.00
1251.828, 24832.00
1252.904, 25000.00
1253.979, 24966.00
1255.054, 24751.00
1256.129, 25213.00
1257.204, 25295.00
1258.279, 24945.00
1259.353, 25038.00
1260.428, 24967.00
1261.502, 25058.00
1262.576, 25185.00
1263.650, 25142.00
1264.724, 25066.00
1265.797, 25191.00
1266.871, 25068.00
1267.944, 25009.00
1269.017, 25275.00
1270.090, 25390.00
1271.162, 25234.00
1272.235, 25306.00
1273.307, 25276.00
1274.380, 25128.00
1275.452, 25337.00
1276.524, 25342.00
1277.595, 25152.00
1278.667, 25327.00
1279.738, 25256.00
1280.810, 25399.00
1281.881, 25346.00
1282.952, 25510.00
1284.022, 25256.00
1285.093, 25401.00
1286.164, 25371.00
1287.234, 25398.00
1288.304, 25487.00
1289.374, 25401.00
1290.444, 25457.00
1291.513, 25475.00
1292.583, 25657.00
1293.652, 25680.00
1294.721, 25593.00
1295.790, 25588.00
1296.859, 25597.23
1297.928, 25578.14
1298.996, 25646.00
1300.064, 25624.00
1301.133, 25685.00
1302.201, 25760.00
1303.268, 25703.00
1304.336, 25811.00
1305.404, 25788.00
1306.471, 25950.00
1307.538, 25929.02
1308.605, 25875.00
1309.672, 25901.00
1310.739, 25887.00
1311.805, 25794.00
1312.872, 25961.00
1313.938, 25922.00
1315.004, 25963.00
1316.070, 26228.00
1317.135, 26021.00
1318.201, 25898.00
1319.266, 26226.00
1320.332, 26037.00
1321.397, 26099.00
1322.462, 26049.00
1323.526, 26135.00
1324.591, 26007.00
1325.655, 26190.00
1326.720, 26299.00
1327.784, 26288.00
1328.848, 26077.00
1329.911, 26551.00
1330.975, 26189.00
1332.038, 26328.00
1333.102, 26199.00
1334.165, 26351.00
1335.228, 26437.00
1336.290, 26175.00
1337.353, 26268.00
1338.415, 26313.00
1339.478, 26287.00
1340.540, 26443.00
1341.602, 26215.00
1342.664, 26214.00
1343.725, 26397.00
1344.787, 26402.00
1345.848, 26425.00
1346.909, 26473.00
1347.970, 26499.00
1349.031, 26585.00
1350.092, 26318.00
1351.152, 26534.00
1352.212, 26447.00
1353.273, 27225.00
1354.333, 26935.47
1355.392, 26410.00
1356.452, 26873.00
1357.512, 26512.00
1358.571, 26736.00
1359.630, 26739.00
1360.689, 26729.00
1361.748, 26725.00
1362.807, 26640.00
1363.865, 26755.00
1364.924, 26836.00
1365.982, 26832.00
1367.040, 27030.00
1368.098, 26816.00
1369.155, 26777.00
1370.213, 26991.00
1371.270, 26772.00
1372.328, 27012.00
1373.385, 26939.00
1374.442, 27115.00
1375.498, 26772.00
1376.555, 26894.00
1377.611, 26862.00
1378.668, 27019.00
1379.724, 27136.00
1380.780, 26812.00
1381.835, 27079.00
1382.891, 27209.00
1383.946, 27069.00
1385.002, 27211.00
1386.057, 27253.00
1387.112, 27109.00
1388.166, 27327.00
1389.221, 27140.00
1390.275, 27092.00
1391.330, 27245.00
1392.384, 27067.00
1393.438, 27305.00
1394.492, 27395.00
1395.545, 27255.00
1396.599, 27436.00
1397.652, 27257.00
1398.705, 27283.00
1399.758, 27440.00
1400.811, 27398.00
1401.863, 27491.53
1402.916, 27407.00
1403.968, 27564.00
1405.020, 27459.00
1406.072, 27399.00
1407.124, 27532.00
1408.176, 27638.00
1409.227, 27575.00
1410.279, 27540.00
1411.330, 27481.00
1412.381, 27471.00
1413.432, 27594.00
1414.482, 27573.00
1415.533, 27663.00
1416.583, 27741.00
1417.633, 27670.00
1418.684, 27759.00
1419.733, 27688.00
1420.783, 27696.00
1421.833, 27728.00
1422.882, 27756.00
1423.931, 27811.00
1424.980, 27671.00
1426.029, 27958.00
1427.078, 27741.00
1428.126, 27877.00
1429.175, 27843.00
1430.223, 27944.00
1431.271, 27878.00
1432.319, 28075.00
1433.367, 27858.00
1434.414, 28155.00
1435.462, 27855.00
1436.509, 28114.00
1437.556, 28151.00
1438.603, 27918.00
1439.650, 28044.00
1440.696, 28201.00
1441.743, 28255.00
1442.789, 28307.00
1443.835, 28342.00
1444.881, 28253.00
1445.927, 28259.00
1446.972, 28277.66
1448.018, 28288.00
1449.063, 28309.00
1450.108, 28289.00
1451.153, 28256.00
1452.198, 28390.00
1453.243, 28313.00
1454.287, 28375.00
1455.331, 28216.00
1456.376, 28444.00
1457.420, 28247.00
1458.463, 28468.00
1459.507, 28516.00
1460.550, 28406.00
1461.594, 28338.00
1462.637, 28342.00
1463.680, 28496.00
1464.723, 28289.00
1465.765, 28371.00
1466.808, 28661.00
1467.850, 28645.00
1468.892, 28489.00
1469.934, 28497.00
1470.976, 28673.00
1472.018, 28577.00
1473.060, 28719.00
1474.101, 28766.00
1475.142, 28627.00
1476.183, 28607.00
1477.224, 28740.00
1478.265, 28886.00
1479.305, 28606.00
1480.346, 28764.00
1481.386, 28646.00
1482.426, 28744.00
1483.466, 28929.00
1484.505, 28666.00
1485.545, 28834.00
1486.584, 28552.00
1487.624, 28886.00
1488.663, 28906.00
1489.702, 28921.00
1490.740, 28913.00
1491.779, 29064.00
1492.817, 29089.00
1493.856, 28913.00
1494.894, 29049.00
1495.932, 29073.00
1496.969, 28862.00
1498.007, 29169.00
1499.044, 29133.00
1500.082, 29086.00
1501.119, 29244.85
1502.156, 28907.00
1503.192, 29342.00
1504.229, 29316.00
1505.265, 29286.00
1506.302, 29060.00
1507.338, 29166.00
1508.374, 29073.00
1509.410, 29546.00
1510.445, 29266.00
1511.481, 29386.00
1512.516, 29161.00
1513.551, 29236.00
1514.586, 29336.00
1515.621, 29293.00
1516.655, 29419.00
1517.690, 29322.00
1518.724, 29462.00
1519.758, 29215.00
1520.792, 29423.00
1521.826, 29508.00
1522.860, 29604.00
1523.893, 29499.00
1524.927, 29528.00
1525.960, 29437.00
1526.993, 29570.00
1528.026, 29442.00
1529.058, 29621.00
1530.091, 29668.00
1531.123, 29621.00
1532.155, 29461.00
1533.187, 29523.00
1534.219, 29758.00
1535.251, 29681.37
1536.282, 29961.00
1537.314, 29762.00
1538.345, 29733.00
1539.376, 29752.00
1540.407, 29607.00
1541.438, 29632.00
1542.468, 29881.00
1543.499, 29970.00
1544.529, 29797.00
1545.559, 29881.00
1546.589, 29841.00
1547.618, 29903.00
1548.648, 29807.00
1549.677, 29875.00
1550.707, 29975.00
1551.736, 30151.00
1552.765, 29967.00
1553.793, 30077.00
1554.822, 30065.00
1555.850, 30026.00
1556.879, 30036.00
1557.907, 30063.00
1558.935, 30105.00
1559.962, 29888.00
1560.990, 29929.00
1562.017, 30101.00
1563.045, 30345.00
1564.072, 29917.00
1565.099, 30104.00
1566.125, 30046.00
1567.152, 30020.00
1568.179, 29970.00
1569.205, 30051.00
1570.231, 30088.00
1571.257, 30243.00
1572.283, 30266.00
1573.308, 30230.00
##END=



