##NAMES=Siderite
##RRUFFID=R040034
##IDEAL CHEMISTRY=Fe^2+^CO_3_
##LOCALITY=Pribram, Czech Republic
##OWNER=RRUFF
##SOURCE=University of Arizona Mineral Museum
##DESCRIPTION=Group of tan colored flattened rhombohedra
##STATUS=The identification of this mineral has been confirmed by X-ray diffraction and chemical analysis
##URL=rruff.info/R040034
##MEASURED CHEMISTRY=(Fe_0.72_Mg_0.24_Mn_0.03_Ca_0.01_)_Î£=1_C_1.00_O_3_; CO_2_ estimated by difference
##PIN_ID=M00031
##ORIENTATION=Laser parallel to c* (0 0 1). Fiducial mark perpendicular to laser is parallel to a [1 0 0]
91.981, 2133.000
93.375, 2171.000
94.768, 2137.000
96.161, 2180.000
97.554, 2173.000
98.947, 2177.000
100.340, 2193.000
101.732, 2192.000
103.124, 2186.000
104.516, 2258.000
105.908, 2301.000
107.300, 2253.000
108.691, 2304.000
110.082, 2246.000
111.473, 2252.000
112.864, 2321.000
114.254, 2420.000
115.644, 2458.000
117.034, 2440.000
118.424, 2432.000
119.813, 2448.000
121.203, 2385.000
122.592, 2394.000
123.981, 2340.000
125.369, 2295.000
126.758, 2306.000
128.146, 2311.000
129.534, 2346.000
130.922, 2334.000
132.309, 2319.000
133.696, 2265.000
135.083, 2363.000
136.470, 2306.000
137.857, 2377.000
139.243, 2368.000
140.630, 2334.000
142.016, 2354.000
143.401, 2356.000
144.787, 2361.000
146.172, 2375.000
147.557, 2400.000
148.942, 2366.000
150.327, 2441.000
151.711, 2403.000
153.096, 2460.000
154.480, 2523.000
155.863, 2513.000
157.247, 2482.000
158.630, 2492.000
160.013, 2552.000
161.396, 2589.000
162.779, 2637.000
164.161, 2653.000
165.544, 2690.000
166.926, 2685.000
168.308, 2803.000
169.689, 2860.000
171.070, 2986.000
172.452, 3020.000
173.833, 3098.000
175.213, 3251.000
176.594, 3334.000
177.974, 3509.000
179.354, 3726.000
180.734, 3974.000
182.114, 4244.000
183.493, 4397.742
184.872, 4470.000
186.251, 4641.000
187.630, 4670.000
189.008, 4615.000
190.387, 4468.000
191.765, 4182.000
193.143, 3937.000
194.520, 3563.000
195.898, 3328.000
197.275, 3080.000
198.652, 2945.000
200.029, 2786.000
201.405, 2652.000
202.782, 2625.000
204.158, 2536.000
205.534, 2524.000
206.909, 2504.000
208.285, 2443.000
209.660, 2479.000
211.035, 2415.000
212.410, 2409.000
213.784, 2417.000
215.159, 2374.000
216.533, 2422.000
217.907, 2396.000
219.281, 2434.000
220.654, 2458.000
222.027, 2390.000
223.400, 2411.000
224.773, 2428.000
226.146, 2401.000
227.518, 2414.000
228.891, 2446.000
230.263, 2483.000
231.634, 2458.000
233.006, 2458.000
234.377, 2481.000
235.748, 2479.000
237.119, 2506.000
238.490, 2549.000
239.860, 2508.000
241.231, 2508.000
242.601, 2484.000
243.970, 2566.000
245.340, 2558.000
246.709, 2575.000
248.079, 2603.000
249.448, 2633.000
250.816, 2654.000
252.185, 2676.460
253.553, 2726.000
254.921, 2719.000
256.289, 2718.000
257.657, 2748.000
259.024, 2790.281
260.391, 2854.000
261.758, 2919.000
263.125, 2983.000
264.492, 3061.000
265.858, 3064.000
267.224, 3154.000
268.590, 3199.000
269.956, 3358.000
271.321, 3478.000
272.687, 3601.000
274.052, 3774.000
275.416, 4007.000
276.781, 4288.000
278.146, 4624.000
279.510, 5002.000
280.874, 5529.000
282.237, 6170.000
283.601, 6753.000
284.964, 7516.000
286.327, 8422.000
287.690, 9219.000
289.053, 9806.000
290.416, 10339.000
291.778, 10311.000
293.140, 10176.000
294.502, 9724.000
295.863, 9179.000
297.225, 8309.000
298.586, 7607.000
299.947, 6966.000
301.308, 6267.000
302.668, 5720.000
304.029, 5287.000
305.389, 4884.000
306.749, 4502.000
308.108, 4305.000
309.468, 4028.000
310.827, 3912.000
312.186, 3702.000
313.545, 3629.000
314.903, 3473.000
316.262, 3392.000
317.620, 3299.000
318.978, 3302.000
320.336, 3187.000
321.693, 3161.000
323.051, 3167.000
324.408, 3051.000
325.765, 3078.000
327.121, 3035.000
328.478, 3036.000
329.834, 2991.000
331.190, 2992.000
332.546, 2996.000
333.902, 2973.000
335.257, 2963.385
336.612, 2912.000
337.967, 2907.000
339.322, 2885.000
340.677, 2823.000
342.031, 2896.000
343.385, 2916.000
344.739, 2850.000
346.093, 2840.000
347.446, 2828.000
348.799, 2887.000
350.153, 2858.000
351.505, 2871.000
352.858, 2832.000
354.210, 2873.000
355.563, 2828.000
356.915, 2794.000
358.267, 2839.000
359.618, 2811.000
360.969, 2824.000
362.321, 2798.000
363.672, 2839.000
365.022, 2813.000
366.373, 2844.000
367.723, 2833.000
369.073, 2802.000
370.423, 2787.000
371.773, 2808.000
373.122, 2803.000
374.471, 2786.000
375.821, 2753.000
377.169, 2809.000
378.518, 2796.000
379.866, 2810.000
381.215, 2793.000
382.563, 2745.000
383.910, 2778.000
385.258, 2758.000
386.605, 2795.000
387.952, 2750.000
389.299, 2790.000
390.646, 2754.000
391.992, 2782.000
393.339, 2777.000
394.685, 2708.000
396.031, 2814.000
397.376, 2722.000
398.722, 2805.000
400.067, 2792.000
401.412, 2755.000
402.757, 2818.000
404.101, 2801.000
405.446, 2798.000
406.790, 2829.000
408.134, 2842.000
409.478, 2777.000
410.821, 2791.000
412.165, 2806.000
413.508, 2806.000
414.851, 2831.000
416.193, 2837.262
417.536, 2852.000
418.878, 2847.000
420.220, 2831.000
421.562, 2806.000
422.904, 2889.000
424.245, 2859.000
425.586, 2843.000
426.927, 2871.000
428.268, 2840.000
429.609, 2816.000
430.949, 2895.000
432.289, 2886.000
433.629, 2886.000
434.969, 2903.000
436.309, 2892.795
437.648, 2893.000
438.987, 2890.000
440.326, 2887.000
441.665, 2889.000
443.003, 2926.000
444.342, 2922.000
445.680, 2916.000
447.018, 2965.000
448.355, 2918.000
449.693, 2964.000
451.030, 2964.000
452.367, 3003.000
453.704, 2974.000
455.041, 2998.974
456.377, 3031.000
457.713, 3021.000
459.049, 3033.000
460.385, 3044.000
461.721, 3089.000
463.056, 3097.000
464.391, 3083.000
465.726, 3134.000
467.061, 3117.000
468.395, 3163.000
469.730, 3147.000
471.064, 3180.000
472.398, 3182.000
473.731, 3184.000
475.065, 3171.000
476.398, 3228.000
477.731, 3254.000
479.064, 3243.000
480.397, 3314.000
481.729, 3338.000
483.062, 3298.000
484.394, 3350.000
485.725, 3375.000
487.057, 3400.000
488.389, 3366.000
489.720, 3353.000
491.051, 3364.000
492.382, 3419.000
493.712, 3402.000
495.043, 3436.000
496.373, 3485.000
497.703, 3495.000
499.032, 3525.000
500.362, 3460.000
501.691, 3502.000
503.020, 3489.000
504.349, 3502.000
505.678, 3513.000
507.007, 3541.000
508.335, 3534.759
509.663, 3529.000
510.991, 3527.000
512.319, 3542.000
513.646, 3535.000
514.973, 3533.605
516.300, 3540.446
517.627, 3528.000
518.954, 3538.000
520.280, 3550.000
521.607, 3530.000
522.933, 3516.000
524.259, 3519.356
525.584, 3537.000
526.910, 3520.000
528.235, 3496.000
529.560, 3505.000
530.885, 3440.000
532.209, 3469.000
533.534, 3491.000
534.858, 3477.000
536.182, 3441.000
537.506, 3479.000
538.829, 3438.000
540.152, 3393.000
541.476, 3480.000
542.799, 3390.000
544.121, 3352.000
545.444, 3397.000
546.766, 3341.000
548.088, 3367.000
549.410, 3341.000
550.732, 3398.000
552.053, 3382.000
553.375, 3318.000
554.696, 3344.000
556.017, 3342.000
557.337, 3348.000
558.658, 3357.469
559.978, 3321.000
561.298, 3354.000
562.618, 3295.000
563.938, 3261.000
565.257, 3251.000
566.576, 3258.000
567.895, 3274.000
569.214, 3268.000
570.533, 3227.000
571.851, 3260.000
573.170, 3271.000
574.488, 3295.000
575.805, 3230.000
577.123, 3219.000
578.440, 3221.000
579.758, 3262.000
581.075, 3237.000
582.391, 3280.000
583.708, 3218.000
585.024, 3267.000
586.341, 3227.000
587.657, 3228.000
588.972, 3277.000
590.288, 3233.000
591.603, 3238.000
592.918, 3225.000
594.233, 3241.000
595.548, 3214.000
596.863, 3183.000
598.177, 3198.000
599.491, 3229.000
600.805, 3261.000
602.119, 3249.000
603.432, 3267.000
604.746, 3257.000
606.059, 3268.361
607.372, 3239.000
608.685, 3278.000
609.997, 3265.000
611.309, 3245.000
612.621, 3273.000
613.933, 3250.000
615.245, 3260.000
616.557, 3252.000
617.868, 3249.048
619.179, 3239.000
620.490, 3252.000
621.801, 3265.000
623.111, 3275.000
624.421, 3272.000
625.731, 3283.000
627.041, 3302.000
628.351, 3294.000
629.660, 3287.000
630.970, 3330.000
632.279, 3244.000
633.588, 3298.000
634.896, 3273.000
636.205, 3287.000
637.513, 3297.000
638.821, 3342.000
640.129, 3333.000
641.437, 3341.000
642.744, 3284.000
644.051, 3326.000
645.358, 3289.000
646.665, 3337.000
647.972, 3355.000
649.278, 3351.000
650.584, 3357.000
651.890, 3378.000
653.196, 3356.000
654.502, 3375.000
655.807, 3356.000
657.113, 3378.000
658.418, 3423.000
659.722, 3368.000
661.027, 3345.000
662.331, 3425.000
663.636, 3400.000
664.940, 3393.000
666.244, 3414.000
667.547, 3375.000
668.851, 3401.000
670.154, 3423.000
671.457, 3358.000
672.760, 3408.000
674.062, 3439.000
675.365, 3416.000
676.667, 3427.000
677.969, 3405.000
679.271, 3456.000
680.572, 3434.000
681.874, 3468.000
683.175, 3525.000
684.476, 3479.000
685.777, 3498.000
687.077, 3458.000
688.378, 3495.000
689.678, 3480.000
690.978, 3473.000
692.278, 3518.000
693.577, 3506.000
694.877, 3508.000
696.176, 3520.000
697.475, 3546.000
698.774, 3530.000
700.072, 3545.000
701.371, 3494.000
702.669, 3489.000
703.967, 3624.000
705.265, 3645.000
706.562, 3609.000
707.860, 3581.000
709.157, 3671.000
710.454, 3638.000
711.751, 3754.000
713.047, 3737.000
714.344, 3756.000
715.640, 3775.000
716.936, 3818.000
718.232, 3883.386
719.527, 3929.000
720.823, 4049.000
722.118, 4150.000
723.413, 4246.000
724.708, 4320.483
726.002, 4392.468
727.297, 4449.689
728.591, 4495.000
729.885, 4530.229
731.179, 4545.000
732.472, 4554.000
733.766, 4525.000
735.059, 4529.000
736.352, 4444.000
737.645, 4506.000
738.937, 4485.000
740.230, 4380.000
741.522, 4352.000
742.814, 4407.000
744.106, 4367.000
745.397, 4308.000
746.689, 4224.000
747.980, 4236.000
749.271, 4105.000
750.562, 4132.000
751.853, 4016.000
753.143, 4001.000
754.433, 3953.000
755.723, 3914.000
757.013, 3932.000
758.303, 3899.000
759.592, 3855.000
760.881, 3859.000
762.170, 3837.049
763.459, 3816.000
764.748, 3827.000
766.036, 3832.000
767.325, 3828.000
768.613, 3860.000
769.901, 3833.000
771.188, 3758.000
772.476, 3829.000
773.763, 3786.000
775.050, 3783.000
776.337, 3800.000
777.624, 3857.000
778.910, 3842.000
780.196, 3867.000
781.482, 3834.000
782.768, 3853.000
784.054, 3875.000
785.339, 3804.000
786.625, 3832.000
787.910, 3838.000
789.195, 3918.000
790.479, 3802.000
791.764, 3906.000
793.048, 3881.000
794.332, 3810.000
795.616, 3879.000
796.900, 3911.000
798.183, 3850.000
799.467, 3930.000
800.750, 3877.000
802.033, 3911.000
803.316, 3942.000
804.598, 3856.000
805.880, 3972.000
807.163, 3930.000
808.445, 3904.000
809.726, 3938.000
811.008, 3951.000
812.289, 3921.000
813.570, 3949.000
814.851, 3911.000
816.132, 3930.000
817.413, 3944.000
818.693, 3977.000
819.973, 3980.000
821.253, 3985.000
822.533, 4025.000
823.813, 3969.000
825.092, 4001.000
826.371, 3986.000
827.650, 3994.000
828.929, 3957.000
830.208, 4061.000
831.486, 3965.000
832.764, 4100.000
834.042, 4002.000
835.320, 4024.000
836.598, 4048.000
837.875, 4068.000
839.152, 4097.000
840.429, 4082.000
841.706, 4077.000
842.983, 4096.000
844.259, 4128.000
845.536, 4112.000
846.812, 4153.000
848.088, 4070.000
849.363, 4163.000
850.639, 4138.000
851.914, 4082.000
853.189, 4128.000
854.464, 4159.000
855.739, 4134.000
857.013, 4196.000
858.288, 4197.000
859.562, 4227.000
860.836, 4263.000
862.110, 4279.000
863.383, 4298.000
864.656, 4326.018
865.930, 4368.000
867.203, 4358.000
868.475, 4361.000
869.748, 4341.000
871.020, 4335.000
872.292, 4297.000
873.564, 4342.000
874.836, 4242.000
876.108, 4217.000
877.379, 4337.000
878.650, 4235.000
879.922, 4212.000
881.192, 4231.000
882.463, 4292.000
883.733, 4290.000
885.004, 4308.000
886.274, 4266.000
887.544, 4311.000
888.813, 4270.000
890.083, 4261.000
891.352, 4339.000
892.621, 4323.000
893.890, 4328.000
895.159, 4336.000
896.427, 4274.000
897.695, 4374.000
898.964, 4308.000
900.232, 4380.000
901.499, 4383.000
902.767, 4387.000
904.034, 4384.000
905.301, 4393.960
906.568, 4386.607
907.835, 4410.000
909.102, 4393.000
910.368, 4397.000
911.634, 4438.000
912.900, 4442.000
914.166, 4499.000
915.432, 4433.000
916.697, 4359.000
917.962, 4543.000
919.227, 4491.000
920.492, 4488.000
921.757, 4416.000
923.021, 4463.000
924.285, 4505.000
925.550, 4505.000
926.813, 4536.000
928.077, 4564.000
929.341, 4534.000
930.604, 4559.000
931.867, 4495.000
933.130, 4466.000
934.393, 4615.000
935.655, 4497.000
936.918, 4626.000
938.180, 4553.000
939.442, 4499.000
940.703, 4603.000
941.965, 4614.000
943.226, 4564.000
944.488, 4611.000
945.749, 4678.000
947.009, 4668.000
948.270, 4665.000
949.530, 4653.000
950.791, 4682.000
952.051, 4676.000
953.311, 4679.736
954.570, 4680.000
955.830, 4679.000
957.089, 4672.000
958.348, 4664.000
959.607, 4685.000
960.866, 4680.466
962.124, 4654.000
963.383, 4710.000
964.641, 4716.000
965.899, 4767.000
967.156, 4742.000
968.414, 4756.000
969.671, 4749.000
970.928, 4772.000
972.185, 4773.000
973.442, 4779.000
974.699, 4787.833
975.955, 4793.000
977.211, 4799.000
978.468, 4840.000
979.723, 4854.000
980.979, 4791.000
982.234, 4914.000
983.490, 4804.000
984.745, 4906.000
986.000, 4928.000
987.254, 4868.000
988.509, 4893.000
989.763, 4953.000
991.017, 4921.000
992.271, 4963.000
993.525, 4975.000
994.779, 5043.000
996.032, 4982.000
997.285, 5053.000
998.538, 4975.000
999.791, 5052.000
1001.044, 5015.000
1002.296, 5115.000
1003.548, 5015.000
1004.800, 5103.000
1006.052, 5050.000
1007.304, 5004.000
1008.555, 5110.000
1009.807, 5108.000
1011.058, 5134.000
1012.309, 5150.000
1013.559, 5171.930
1014.810, 5136.000
1016.060, 5211.000
1017.310, 5210.000
1018.560, 5195.000
1019.810, 5248.000
1021.060, 5282.000
1022.309, 5231.000
1023.558, 5308.000
1024.807, 5290.000
1026.056, 5294.000
1027.305, 5359.000
1028.553, 5374.000
1029.801, 5444.000
1031.049, 5442.000
1032.297, 5460.000
1033.545, 5577.000
1034.793, 5588.000
1036.040, 5649.000
1037.287, 5708.000
1038.534, 5799.000
1039.781, 5850.000
1041.027, 5872.000
1042.274, 5938.000
1043.520, 5975.844
1044.766, 6019.000
1046.012, 6104.000
1047.257, 6168.000
1048.503, 6309.000
1049.748, 6354.000
1050.993, 6602.000
1052.238, 6597.000
1053.483, 6662.000
1054.727, 6905.000
1055.971, 7148.000
1057.216, 7147.000
1058.459, 7374.000
1059.703, 7550.000
1060.947, 7831.000
1062.190, 8070.000
1063.433, 8295.000
1064.676, 8589.000
1065.919, 8910.000
1067.162, 9318.000
1068.404, 9616.000
1069.646, 10004.000
1070.888, 10562.000
1072.130, 11038.000
1073.372, 11849.000
1074.613, 13012.000
1075.855, 13974.000
1077.096, 15533.000
1078.337, 17685.000
1079.578, 20369.000
1080.818, 24281.000
1082.059, 29240.000
1083.299, 36189.000
1084.539, 43681.000
1085.779, 51790.000
1087.018, 56336.000
1088.258, 56324.000
1089.497, 51538.000
1090.736, 43893.000
1091.975, 35816.000
1093.213, 28854.000
1094.452, 23609.000
1095.690, 19011.000
1096.928, 16052.000
1098.166, 13466.000
1099.404, 12134.000
1100.642, 10700.000
1101.879, 9828.000
1103.116, 9000.000
1104.353, 8394.000
1105.590, 7908.000
1106.827, 7662.000
1108.063, 7297.000
1109.299, 7128.000
1110.536, 7020.000
1111.771, 6823.000
1113.007, 6648.000
1114.243, 6481.000
1115.478, 6391.000
1116.713, 6308.000
1117.948, 6256.000
1119.183, 6114.000
1120.418, 6214.000
1121.652, 6334.000
1122.886, 6259.000
1124.120, 6210.000
1125.354, 6038.000
1126.588, 6024.000
1127.821, 5862.000
1129.055, 6010.000
1130.288, 5945.000
1131.521, 5878.000
1132.753, 5849.000
1133.986, 5811.000
1135.218, 5922.000
1136.450, 5780.000
1137.682, 5828.000
1138.914, 5754.000
1140.146, 5766.000
1141.377, 5762.000
1142.609, 5787.000
1143.840, 5733.000
1145.071, 5815.000
1146.301, 5815.000
1147.532, 5746.000
1148.762, 5843.000
1149.992, 5802.000
1151.222, 5802.000
1152.452, 5811.000
1153.682, 5781.000
1154.911, 5807.000
1156.140, 5840.000
1157.369, 5841.000
1158.598, 5826.000
1159.827, 5818.000
1161.055, 5826.000
1162.284, 5750.000
1163.512, 5830.000
1164.740, 5878.000
1165.967, 5768.000
1167.195, 5813.000
1168.422, 5875.000
1169.650, 5884.000
1170.877, 5853.000
1172.103, 5913.000
1173.330, 5864.000
1174.557, 5837.000
1175.783, 5896.000
1177.009, 5824.000
1178.235, 5897.000
1179.461, 5883.000
1180.686, 5839.000
1181.912, 5948.000
1183.137, 5962.000
1184.362, 5887.000
1185.587, 5875.000
1186.811, 5915.000
1188.036, 5872.000
1189.260, 5971.000
1190.484, 5967.000
1191.708, 5954.000
1192.932, 5921.000
1194.155, 5963.000
1195.378, 5985.000
1196.602, 6038.000
1197.825, 5995.000
1199.047, 6137.000
1200.270, 6028.000
1201.492, 6113.000
1202.715, 5969.000
1203.937, 6102.000
1205.159, 6077.000
1206.380, 6113.000
1207.602, 6011.000
1208.823, 6068.000
1210.044, 6091.000
1211.265, 6021.000
1212.486, 6086.000
1213.707, 6118.000
1214.927, 6106.000
1216.147, 6094.000
1217.367, 6139.000
1218.587, 6146.000
1219.807, 6100.000
1221.027, 6166.000
1222.246, 6199.000
1223.465, 6106.000
1224.684, 6174.000
1225.903, 6204.000
1227.121, 6204.000
1228.340, 6219.000
1229.558, 6229.037
1230.776, 6192.000
1231.994, 6225.000
1233.212, 6244.000
1234.429, 6205.000
1235.646, 6181.000
1236.864, 6303.000
1238.081, 6238.000
1239.297, 6233.000
1240.514, 6334.000
1241.730, 6202.000
1242.947, 6242.000
1244.163, 6258.000
1245.378, 6354.000
1246.594, 6311.000
1247.810, 6357.278
1249.025, 6263.000
1250.240, 6390.000
1251.455, 6319.000
1252.670, 6333.000
1253.885, 6292.000
1255.099, 6288.000
1256.313, 6270.000
1257.527, 6288.632
1258.741, 6313.000
1259.955, 6336.000
1261.168, 6407.000
1262.382, 6413.000
1263.595, 6428.000
1264.808, 6403.000
1266.021, 6412.000
1267.233, 6403.000
1268.446, 6478.000
1269.658, 6391.000
1270.870, 6465.000
1272.082, 6474.000
1273.294, 6478.000
1274.505, 6412.000
1275.716, 6429.000
1276.928, 6376.000
1278.139, 6486.000
1279.349, 6517.000
1280.560, 6483.000
1281.770, 6508.000
1282.981, 6489.000
1284.191, 6560.000
1285.401, 6540.000
1286.610, 6544.000
1287.820, 6536.000
1289.029, 6478.000
1290.239, 6547.000
1291.448, 6586.000
1292.656, 6492.000
1293.865, 6528.000
1295.073, 6583.000
1296.282, 6526.000
1297.490, 6499.000
1298.698, 6548.000
1299.906, 6544.000
1301.113, 6554.083
1302.320, 6596.000
1303.528, 6596.000
1304.735, 6631.073
1305.942, 6605.000
1307.148, 6689.000
1308.355, 6665.000
1309.561, 6688.000
1310.767, 6674.000
1311.973, 6606.000
1313.179, 6606.000
1314.384, 6735.000
1315.590, 6662.000
1316.795, 6700.000
1318.000, 6678.000
1319.205, 6739.000
1320.410, 6680.000
1321.614, 6674.000
1322.819, 6634.000
1324.023, 6647.983
1325.227, 6655.460
1326.431, 6700.000
1327.634, 6699.000
1328.838, 6742.000
1330.041, 6764.000
1331.244, 6785.000
1332.447, 6704.000
1333.650, 6722.000
1334.852, 6784.000
1336.055, 6695.000
1337.257, 6784.000
1338.459, 6726.000
1339.661, 6819.000
1340.862, 6822.000
1342.064, 6765.000
1343.265, 6807.000
1344.466, 6818.000
1345.667, 6866.000
1346.868, 6824.000
1348.068, 6892.000
1349.269, 6818.000
1350.469, 6921.000
1351.669, 6893.000
1352.869, 6872.000
1354.069, 6965.000
1355.268, 6868.000
1356.468, 6939.000
1357.667, 7009.000
1358.866, 6927.000
1360.065, 6932.000
1361.263, 6981.000
1362.462, 6987.000
1363.660, 6996.000
1364.858, 7040.000
1366.056, 6927.000
1367.254, 6950.000
1368.451, 6950.000
1369.649, 6996.000
1370.846, 6990.000
1372.043, 6963.000
1373.240, 6986.000
1374.436, 7018.000
1375.633, 7070.000
1376.829, 7070.000
1378.025, 7082.000
1379.221, 7062.000
1380.417, 7094.000
1381.613, 7019.000
1382.808, 7091.000
1384.003, 7059.000
1385.199, 7148.000
1386.393, 7040.000
1387.588, 7138.000
1388.783, 7151.000
1389.977, 7139.000
1391.171, 7163.000
1392.365, 7073.000
1393.559, 7248.000
1394.753, 7236.000
1395.946, 7215.000
1397.140, 7158.000
1398.333, 7250.000
1399.526, 7281.000
1400.719, 7232.000
1401.911, 7212.000
1403.104, 7300.000
1404.296, 7286.000
1405.488, 7276.000
1406.680, 7355.000
1407.872, 7374.000
1409.063, 7428.000
1410.255, 7367.000
1411.446, 7400.000
1412.637, 7446.000
1413.828, 7564.000
1415.018, 7435.000
1416.209, 7387.000
1417.399, 7531.000
1418.589, 7574.000
1419.779, 7560.000
1420.969, 7620.000
1422.159, 7507.000
1423.348, 7603.000
1424.537, 7679.000
1425.726, 7612.000
1426.915, 7704.000
1428.104, 7751.000
1429.293, 7709.000
1430.481, 7688.000
1431.669, 7716.360
1432.857, 7742.000
1434.045, 7762.000
1435.233, 7816.000
1436.420, 7874.000
1437.608, 7797.000
1438.795, 7843.000
1439.982, 7887.000
1441.169, 7890.000
1442.355, 7798.000
1443.542, 7866.000
1444.728, 7872.000
1445.914, 7947.000
1447.100, 7926.000
1448.286, 7857.000
1449.472, 7842.000
1450.657, 7974.000
1451.842, 7974.000
1453.027, 7898.000
1454.212, 8055.000
1455.397, 7858.000
1456.581, 7975.000
1457.766, 8025.000
1458.950, 7932.000
1460.134, 8083.000
1461.318, 8003.000
1462.501, 7931.000
1463.685, 8021.000
1464.868, 7918.000
1466.051, 8022.000
1467.234, 7883.000
1468.417, 7961.000
1469.600, 8062.000
1470.782, 8056.000
1471.965, 8085.141
1473.147, 7956.000
1474.329, 8056.000
1475.510, 7962.000
1476.692, 7929.000
1477.873, 7981.000
1479.055, 7968.000
1480.236, 8041.000
1481.416, 7953.000
1482.597, 7992.000
1483.778, 8046.000
1484.958, 7962.000
1486.138, 7896.000
1487.318, 7981.000
1488.498, 7856.000
1489.678, 7947.000
1490.857, 7970.000
1492.037, 8005.000
1493.216, 7937.000
1494.395, 7923.000
1495.574, 8071.000
1496.752, 7970.000
1497.931, 8036.000
1499.109, 8028.000
1500.287, 8000.795
1501.465, 8164.060
1502.643, 7948.000
1503.820, 8311.000
1504.998, 8249.000
1506.175, 7963.000
1507.352, 7958.000
1508.529, 7924.000
1509.706, 8034.000
1510.882, 8018.000
1512.059, 7998.000
1513.235, 8046.000
1514.411, 7973.000
1515.587, 8098.000
1516.762, 8050.000
1517.938, 8051.000
1519.113, 8084.000
1520.288, 8009.000
1521.463, 8014.000
1522.638, 8104.000
1523.813, 8091.000
##END=



