##NAMES=Spinel
##RRUFFID=R060799
##IDEAL CHEMISTRY=MgAl_2_O_4_
##LOCALITY=Aliabad, Hunza Valley, Pakistan
##OWNER=RRUFF
##SOURCE=Marcus Origlieri
##DESCRIPTION=A group of blue distorted octahedra
##STATUS=The identification of this mineral is confirmed by single-crystal X-ray diffraction and chemical analysis.
##URL=rruff.info/R060799
##MEASURED CHEMISTRY=(Mg_0.97_Fe^2+^_0.03_)_1.00_Al_2.00_O_4_
##PIN_ID=L01579
##ORIENTATION=Laser parallel to a* (1 0 0). Fiducial mark perpendicular to laser is parallel to c [0 0 1]
75.95700, 110512.0
77.19600, 110475.0
78.43500, 110339.0
79.67300, 110096.0
80.91200, 110213.0
82.15000, 110457.0
83.38800, 110359.0
84.62600, 109843.0
85.86300, 109293.0
87.10100, 109201.0
88.33800, 109081.0
89.57500, 109359.0
90.81200, 109340.0
92.04900, 109424.0
93.28600, 108568.0
94.52300, 108949.0
95.75900, 108770.0
96.99500, 108191.0
98.23100, 108420.0
99.46700, 107968.0
100.7030, 108524.0
101.9390, 108665.0
103.1740, 108624.0
104.4090, 109573.0
105.6440, 108737.0
106.8790, 109348.0
108.1140, 108426.0
109.3490, 108397.0
110.5830, 107496.0
111.8180, 107641.0
113.0520, 107607.0
114.2860, 107657.0
115.5200, 107770.0
116.7530, 107630.0
117.9870, 107608.0
119.2200, 107835.0
120.4530, 107613.0
121.6860, 107217.0
122.9190, 107455.0
124.1520, 107223.0
125.3850, 107169.0
126.6170, 106942.0
127.8490, 106969.0
129.0810, 106684.0
130.3130, 106365.0
131.5450, 106956.0
132.7770, 106348.0
134.0080, 106237.0
135.2390, 106521.0
136.4710, 106219.0
137.7020, 106248.0
138.9320, 106415.0
140.1630, 105893.0
141.3930, 105774.0
142.6240, 105705.0
143.8540, 105633.0
145.0840, 105637.0
146.3140, 105477.5
147.5440, 105262.0
148.7730, 105282.0
150.0020, 105045.0
151.2320, 105135.0
152.4610, 105040.0
153.6900, 104530.0
154.9180, 104660.0
156.1470, 104400.0
157.3750, 104376.0
158.6040, 103914.0
159.8320, 104103.0
161.0600, 104293.0
162.2870, 104399.0
163.5150, 103858.0
164.7420, 103604.0
165.9700, 103796.0
167.1970, 103128.0
168.4240, 103429.0
169.6510, 103306.0
170.8770, 103118.0
172.1040, 102959.0
173.3300, 102776.0
174.5560, 102649.0
175.7820, 102283.0
177.0080, 102429.0
178.2340, 102043.0
179.4590, 102270.0
180.6850, 102038.0
181.9100, 101797.0
183.1350, 102077.0
184.3600, 102082.0
185.5850, 101494.0
186.8090, 101720.0
188.0340, 102139.0
189.2580, 101471.0
190.4820, 101448.0
191.7060, 101597.0
192.9300, 101450.0
194.1530, 101178.0
195.3770, 101258.0
196.6000, 101167.0
197.8230, 100997.3
199.0460, 100976.0
200.2690, 100817.0
201.4910, 100664.0
202.7140, 100818.0
203.9360, 100770.0
205.1580, 100511.0
206.3800, 100517.0
207.6020, 100308.0
208.8240, 100083.0
210.0450, 100344.0
211.2670, 99692.00
212.4880, 99539.00
213.7090, 99811.00
214.9300, 99692.00
216.1510, 99879.00
217.3710, 99590.00
218.5920, 99628.00
219.8120, 99298.00
221.0320, 99257.00
222.2520, 99103.00
223.4720, 99285.00
224.6910, 98974.00
225.9110, 98937.00
227.1300, 98961.00
228.3490, 98277.00
229.5680, 98868.00
230.7870, 98335.00
232.0050, 98396.00
233.2240, 98065.00
234.4420, 98236.00
235.6600, 97600.00
236.8780, 98381.00
238.0960, 97685.00
239.3140, 98000.00
240.5310, 97491.00
241.7490, 96965.00
242.9660, 97680.00
244.1830, 97444.00
245.4000, 97226.00
246.6160, 97246.00
247.8330, 97085.00
249.0490, 97128.00
250.2660, 97034.00
251.4820, 97214.00
252.6980, 97059.00
253.9130, 96673.00
255.1290, 96823.00
256.3440, 96541.27
257.5600, 96436.02
258.7750, 96303.00
259.9900, 96217.00
261.2040, 96223.00
262.4190, 96163.00
263.6330, 96434.00
264.8480, 96240.00
266.0620, 96115.00
267.2760, 95574.00
268.4900, 95446.00
269.7030, 95379.00
270.9170, 95330.00
272.1300, 95284.32
273.3430, 95212.67
274.5560, 95194.00
275.7690, 95146.00
276.9820, 94973.00
278.1940, 95076.00
279.4070, 94999.00
280.6190, 94452.00
281.8310, 94573.00
283.0430, 94472.00
284.2550, 94427.00
285.4660, 94594.00
286.6770, 94220.00
287.8890, 94162.00
289.1000, 94296.00
290.3110, 94255.00
291.5210, 94277.52
292.7320, 93538.00
293.9420, 94283.00
295.1530, 93811.00
296.3630, 93752.00
297.5730, 93924.00
298.7830, 93829.00
299.9920, 93895.00
301.2020, 93317.00
302.4110, 93890.00
303.6200, 93165.00
304.8290, 93530.00
306.0380, 94652.00
307.2470, 93789.00
308.4550, 94006.00
309.6630, 93676.00
310.8720, 94084.00
312.0800, 93894.00
313.2880, 93554.00
314.4950, 92995.00
315.7030, 92750.00
316.9100, 92420.27
318.1170, 92071.00
319.3240, 92030.00
320.5310, 91988.00
321.7380, 92078.00
322.9450, 91847.00
324.1510, 91727.00
325.3570, 91501.00
326.5630, 91253.00
327.7690, 91307.52
328.9750, 91213.00
330.1810, 91313.00
331.3860, 91206.00
332.5910, 91008.00
333.7960, 90936.16
335.0010, 90777.89
336.2060, 90626.00
337.4110, 90563.00
338.6150, 90481.00
339.8200, 90504.00
341.0240, 90068.00
342.2280, 89770.00
343.4320, 90125.00
344.6350, 89937.00
345.8390, 90448.00
347.0420, 90255.00
348.2450, 90216.00
349.4480, 90128.00
350.6510, 90206.00
351.8540, 90211.00
353.0560, 90111.42
354.2590, 90081.26
355.4610, 89858.00
356.6630, 89837.00
357.8650, 89575.00
359.0670, 89334.00
360.2680, 89349.00
361.4700, 89617.00
362.6710, 89924.00
363.8720, 89708.00
365.0730, 89354.00
366.2740, 89401.00
367.4740, 89816.00
368.6750, 89463.00
369.8750, 89424.00
371.0750, 89201.00
372.2750, 89704.00
373.4750, 89505.00
374.6740, 89955.00
375.8740, 89729.00
377.0730, 89544.00
378.2720, 89299.00
379.4710, 89679.00
380.6700, 89677.00
381.8690, 89941.34
383.0670, 90400.00
384.2660, 90699.00
385.4640, 91255.00
386.6620, 91920.00
387.8600, 92320.00
389.0570, 93752.00
390.2550, 95008.00
391.4520, 96340.00
392.6490, 99190.00
393.8460, 102498.0
395.0430, 106646.0
396.2400, 112622.0
397.4370, 119009.0
398.6330, 128956.0
399.8290, 140747.0
401.0250, 154471.0
402.2210, 169756.0
403.4170, 182383.0
404.6130, 189676.0
405.8080, 189238.0
407.0030, 180729.0
408.1980, 165331.0
409.3930, 147978.0
410.5880, 131303.0
411.7830, 118488.0
412.9770, 109311.0
414.1720, 102815.0
415.3660, 97812.00
416.5600, 94563.00
417.7530, 91949.00
418.9470, 90393.00
420.1410, 89143.00
421.3340, 87926.00
422.5270, 86912.00
423.7200, 86741.00
424.9130, 86222.00
426.1060, 85687.00
427.2980, 84918.00
428.4900, 84574.00
429.6830, 84396.00
430.8750, 83940.00
432.0670, 83828.00
433.2580, 83746.00
434.4500, 83472.62
435.6410, 83274.32
436.8320, 83029.00
438.0240, 82781.00
439.2140, 82322.00
440.4050, 82176.00
441.5960, 82607.00
442.7860, 82326.00
443.9760, 82093.00
445.1670, 81764.00
446.3560, 81650.34
447.5460, 81520.94
448.7360, 81476.00
449.9250, 81358.00
451.1150, 81403.00
452.3040, 81223.00
453.4930, 81470.00
454.6810, 81467.00
455.8700, 80666.00
457.0590, 80925.00
458.2470, 80485.00
459.4350, 80683.00
460.6230, 80790.00
461.8110, 80492.00
462.9980, 80171.00
464.1860, 80071.00
465.3730, 79719.00
466.5600, 80056.00
467.7470, 80373.00
468.9340, 80112.00
470.1210, 79911.00
471.3080, 79778.00
472.4940, 79589.00
473.6800, 79310.00
474.8660, 79157.00
476.0520, 79368.00
477.2380, 78993.00
478.4230, 78930.35
479.6090, 78795.00
480.7940, 78620.00
481.9790, 78536.00
483.1640, 78551.00
484.3490, 78458.91
485.5330, 78413.52
486.7180, 78241.00
487.9020, 78331.00
489.0860, 77877.00
490.2700, 77881.00
491.4540, 77441.00
492.6370, 77798.00
493.8210, 77632.00
495.0040, 77362.00
496.1870, 77333.00
497.3700, 76811.00
498.5530, 76948.00
499.7360, 76636.00
500.9180, 76696.00
502.1000, 76737.00
503.2830, 76464.00
504.4650, 76824.00
505.6460, 76513.00
506.8280, 76308.00
508.0100, 76083.00
509.1910, 76249.00
510.3720, 76000.00
511.5530, 75868.00
512.7340, 75547.00
513.9150, 75789.00
515.0950, 75201.00
516.2760, 75740.00
517.4560, 75471.00
518.6360, 75810.00
519.8160, 75512.00
520.9950, 75303.00
522.1750, 75357.00
523.3540, 75407.00
524.5340, 74951.00
525.7130, 75022.00
526.8920, 74855.00
528.0700, 74403.00
529.2490, 74599.00
530.4270, 74502.00
531.6060, 74082.00
532.7840, 74245.00
533.9620, 74187.00
535.1390, 74184.00
536.3170, 74062.00
537.4940, 73989.00
538.6720, 73758.00
539.8490, 73397.00
541.0260, 73807.00
542.2030, 73425.00
543.3790, 73138.00
544.5560, 72770.00
545.7320, 72793.48
546.9080, 73072.00
548.0840, 73018.00
549.2600, 72729.00
550.4360, 73016.00
551.6110, 72929.00
552.7860, 72461.00
553.9620, 72551.00
555.1370, 72586.00
556.3110, 72157.00
557.4860, 72118.00
558.6610, 72238.00
559.8350, 72291.00
561.0090, 72024.00
562.1830, 72046.00
563.3570, 71927.00
564.5310, 71981.00
565.7040, 71919.00
566.8780, 71479.00
568.0510, 71766.00
569.2240, 71585.00
570.3970, 71319.00
571.5700, 71497.00
572.7420, 71249.00
573.9150, 71386.00
575.0870, 71268.00
576.2590, 71277.00
577.4310, 70764.00
578.6030, 70737.00
579.7740, 70666.00
580.9460, 70471.00
582.1170, 70747.00
583.2880, 70586.00
584.4590, 70308.00
585.6300, 69949.00
586.8010, 70094.00
587.9710, 70408.00
589.1410, 70140.00
590.3110, 70052.00
591.4810, 69955.00
592.6510, 69876.00
593.8210, 69788.00
594.9900, 69866.00
596.1600, 69705.00
597.3290, 69648.00
598.4980, 69682.00
599.6670, 69481.00
600.8350, 69321.00
602.0040, 69479.00
603.1720, 69243.73
604.3400, 69039.00
605.5080, 69046.00
606.6760, 68868.00
607.8440, 68826.00
609.0120, 68960.00
610.1790, 68584.00
611.3460, 68972.00
612.5130, 68892.00
613.6800, 68644.00
614.8470, 68795.00
616.0130, 68497.00
617.1800, 68230.00
618.3460, 68116.00
619.5120, 68023.00
620.6780, 68006.00
621.8440, 67832.56
623.0090, 67661.00
624.1750, 67526.00
625.3400, 67433.00
626.5050, 67263.76
627.6700, 67642.00
628.8350, 67183.00
629.9990, 67189.00
631.1640, 67311.00
632.3280, 67032.00
633.4920, 66797.00
634.6560, 66713.00
635.8200, 66595.87
636.9840, 66678.00
638.1470, 66432.00
639.3100, 66558.00
640.4730, 66274.00
641.6360, 66202.00
642.7990, 66475.00
643.9620, 66388.00
645.1240, 66178.00
646.2870, 65894.00
647.4490, 66020.00
648.6110, 66141.00
649.7730, 66508.00
650.9340, 66316.00
652.0960, 66288.00
653.2570, 66381.00
654.4180, 66442.00
655.5790, 66787.34
656.7400, 67272.00
657.9010, 67680.00
659.0620, 68146.00
660.2220, 68771.00
661.3820, 68751.00
662.5420, 69338.00
663.7020, 69690.00
664.8620, 69300.00
666.0210, 68655.00
667.1810, 68838.00
668.3400, 67938.00
669.4990, 67151.00
670.6580, 66557.00
671.8170, 66015.00
672.9750, 65621.00
674.1340, 65011.00
675.2920, 64427.00
676.4500, 64439.00
677.6080, 63917.00
678.7660, 63911.00
679.9230, 63412.00
681.0810, 63678.00
682.2380, 62944.00
683.3950, 62817.00
684.5520, 62374.00
685.7090, 62680.00
686.8660, 62488.00
688.0220, 62365.00
689.1780, 61969.00
690.3340, 61995.00
691.4900, 61667.00
692.6460, 61753.00
693.8020, 61800.00
694.9570, 61762.00
696.1130, 61711.00
697.2680, 61702.00
698.4230, 61407.00
699.5780, 61204.00
700.7320, 61130.00
701.8870, 61227.00
703.0410, 60880.00
704.1950, 60622.00
705.3490, 61125.00
706.5030, 60689.00
707.6570, 60573.00
708.8110, 60762.00
709.9640, 60405.00
711.1170, 60460.00
712.2700, 60456.00
713.4230, 60333.00
714.5760, 59980.00
715.7280, 59881.00
716.8810, 59822.00
718.0330, 59675.97
719.1850, 59810.00
720.3370, 59595.00
721.4890, 59437.00
722.6400, 59439.00
723.7920, 59119.00
724.9430, 59344.00
726.0940, 59213.00
727.2450, 59038.00
728.3960, 59372.00
729.5460, 59333.00
730.6970, 59225.68
731.8470, 58830.00
732.9970, 58894.00
734.1470, 58713.00
735.2970, 58396.00
736.4460, 58674.00
737.5960, 58875.00
738.7450, 58785.00
739.8940, 58596.00
741.0430, 58699.00
742.1920, 58532.00
743.3410, 58716.00
744.4890, 58931.00
745.6370, 59071.00
746.7850, 59180.00
747.9330, 59202.00
749.0810, 59362.00
750.2290, 59660.00
751.3760, 59900.00
752.5240, 60435.00
753.6710, 60679.00
754.8180, 61266.00
755.9650, 61748.00
757.1110, 62667.42
758.2580, 63761.00
759.4040, 64821.00
760.5510, 66128.00
761.6970, 67398.00
762.8420, 68771.00
763.9880, 69632.00
765.1340, 70503.00
766.2790, 70471.00
767.4240, 70149.00
768.5690, 68743.00
769.7140, 67280.00
770.8590, 66007.00
772.0030, 64408.00
773.1480, 63091.00
774.2920, 61714.00
775.4360, 60306.00
776.5800, 59043.00
777.7240, 58741.00
778.8670, 58227.00
780.0110, 57747.00
781.1540, 57070.00
782.2970, 56515.00
783.4400, 56075.00
784.5830, 55855.00
785.7250, 55682.00
786.8680, 55630.00
788.0100, 55378.00
789.1520, 55189.00
790.2940, 54976.00
791.4360, 54887.00
792.5780, 54759.00
793.7190, 54705.00
794.8600, 54335.00
796.0010, 54455.00
797.1420, 54168.00
798.2830, 54131.00
799.4240, 53802.00
800.5640, 53734.00
801.7050, 53811.00
802.8450, 53477.00
803.9850, 53480.00
805.1250, 53045.00
806.2640, 53090.00
807.4040, 52831.00
808.5430, 52771.00
809.6820, 52730.00
810.8210, 52817.00
811.9600, 52380.00
813.0990, 52755.00
814.2370, 52330.00
815.3760, 52312.00
816.5140, 52151.00
817.6520, 51971.00
818.7900, 52040.00
819.9270, 51962.00
821.0650, 51746.00
822.2020, 51547.00
823.3390, 51626.00
824.4760, 51590.00
825.6130, 51325.00
826.7500, 51417.00
827.8870, 51227.00
829.0230, 51067.00
830.1590, 51155.00
831.2950, 50961.00
832.4310, 50759.00
833.5670, 50904.00
834.7030, 50893.00
835.8380, 50793.00
836.9730, 50337.00
838.1080, 50668.00
839.2430, 50678.00
840.3780, 50161.00
841.5130, 50531.00
842.6470, 50339.00
843.7810, 50065.00
844.9150, 49883.00
846.0490, 49919.00
847.1830, 49939.00
848.3170, 49896.00
849.4500, 49615.00
850.5830, 49402.00
851.7160, 49829.00
852.8490, 49301.00
853.9820, 49028.00
855.1150, 49408.00
856.2470, 49243.00
857.3800, 49275.00
858.5120, 49069.00
859.6440, 49233.00
860.7760, 49067.77
861.9070, 48538.00
863.0390, 48834.00
864.1700, 48621.00
865.3010, 48433.00
866.4320, 48559.00
867.5630, 48465.00
868.6940, 48566.00
869.8240, 48169.00
870.9540, 48032.00
872.0850, 48045.00
873.2150, 47930.00
874.3450, 47924.00
875.4740, 47529.00
876.6040, 47686.00
877.7330, 47480.00
878.8620, 47659.00
879.9910, 47528.00
881.1200, 47237.00
882.2490, 47363.00
883.3770, 47153.00
884.5060, 47196.00
885.6340, 46710.00
886.7620, 46993.00
887.8900, 46910.00
889.0180, 46542.00
890.1450, 46506.00
891.2730, 46373.00
892.4000, 46689.00
893.5270, 46730.00
894.6540, 46553.00
895.7810, 46692.38
896.9070, 46264.00
898.0340, 46644.00
899.1600, 46269.00
900.2860, 46199.00
901.4120, 46082.00
902.5380, 46058.00
903.6630, 46041.00
904.7890, 45999.00
905.9140, 45945.51
907.0390, 45897.00
908.1640, 45801.00
909.2890, 45574.00
910.4130, 45457.00
911.5380, 45541.00
912.6620, 45177.00
913.7860, 45304.00
914.9100, 45360.00
916.0340, 45141.00
917.1580, 44750.00
918.2810, 44893.00
919.4040, 44970.00
920.5280, 45099.00
921.6510, 44929.00
922.7730, 44593.00
923.8960, 44447.00
925.0180, 44639.00
926.1410, 44634.00
927.2630, 44533.00
928.3850, 44295.00
929.5070, 44286.40
930.6280, 44390.00
931.7500, 44117.00
932.8710, 44104.00
933.9920, 44003.00
935.1130, 43878.00
936.2340, 44084.00
937.3550, 43668.00
938.4760, 43687.00
939.5960, 43868.00
940.7160, 43487.00
941.8360, 43458.00
942.9560, 43411.00
944.0760, 43275.00
945.1950, 43432.00
946.3150, 43321.00
947.4340, 43381.00
948.5530, 43443.00
949.6720, 43145.00
950.7900, 43150.00
951.9090, 42748.00
953.0270, 42649.00
954.1460, 42765.00
955.2640, 43071.00
956.3820, 42922.00
957.4990, 42667.00
958.6170, 42739.00
959.7340, 42737.00
960.8520, 42575.00
961.9690, 42351.00
963.0860, 42714.00
964.2020, 42589.00
965.3190, 42505.00
966.4350, 42126.00
967.5520, 42483.00
968.6680, 42100.00
969.7840, 42086.00
970.8990, 42236.00
972.0150, 42027.00
973.1310, 42409.00
974.2460, 41891.00
975.3610, 41612.00
976.4760, 41829.00
977.5910, 42104.00
978.7050, 41923.00
979.8200, 41657.00
980.9340, 41308.00
982.0480, 41295.00
983.1620, 41185.27
984.2760, 41329.00
985.3900, 41333.00
986.5030, 41536.00
987.6160, 41387.66
988.7300, 41362.95
989.8430, 41186.00
990.9550, 41019.00
992.0680, 41086.00
993.1810, 40695.00
994.2930, 40868.00
995.4050, 40914.00
996.5170, 41006.00
997.6290, 40771.00
998.7410, 40543.00
999.8520, 40706.00
1000.964, 40489.00
1002.075, 40576.00
1003.186, 40671.00
1004.297, 40529.00
1005.407, 40364.00
1006.518, 40349.00
1007.628, 40284.00
1008.738, 40149.00
1009.848, 40008.00
1010.958, 40033.00
1012.068, 40001.00
1013.178, 39719.00
1014.287, 40105.00
1015.396, 39833.00
1016.505, 39632.00
1017.614, 39590.00
1018.723, 39776.00
1019.831, 39391.00
1020.940, 39572.00
1022.048, 39689.00
1023.156, 39411.00
1024.264, 39104.00
1025.372, 39224.00
1026.479, 38973.00
1027.587, 39224.00
1028.694, 39193.00
1029.801, 38983.00
1030.908, 38997.00
1032.015, 39070.00
1033.121, 38813.00
1034.228, 38530.00
1035.334, 38714.00
1036.440, 38815.00
1037.546, 38499.00
1038.652, 38709.00
1039.758, 38724.00
1040.863, 38759.00
1041.968, 38476.00
1043.074, 38567.00
1044.178, 38329.00
1045.283, 38445.00
1046.388, 38328.00
1047.492, 38346.00
1048.597, 38353.00
1049.701, 38145.00
1050.805, 38359.00
1051.909, 38094.00
1053.012, 38071.00
1054.116, 37804.00
1055.219, 38059.00
1056.322, 37805.00
1057.425, 37965.00
1058.528, 37787.00
1059.631, 37757.00
1060.733, 37733.00
1061.836, 37805.00
1062.938, 37804.00
1064.040, 37646.00
1065.142, 37492.00
1066.243, 37538.00
1067.345, 37342.00
1068.446, 37374.00
1069.547, 37319.00
1070.648, 37497.00
1071.749, 37399.00
1072.850, 37262.00
1073.951, 37283.00
1075.051, 37185.69
1076.151, 37165.70
1077.251, 37112.00
1078.351, 37115.00
1079.451, 37125.00
1080.550, 37063.00
1081.650, 36965.00
1082.749, 36958.00
1083.848, 36730.00
1084.947, 36713.00
1086.046, 36736.00
1087.144, 36674.00
1088.243, 36749.00
1089.341, 36464.00
1090.439, 36562.00
1091.537, 36548.00
1092.635, 36627.00
1093.732, 36604.00
1094.830, 36596.94
1095.927, 36386.00
1097.024, 36489.00
1098.121, 36398.00
1099.218, 36213.00
1100.314, 36269.00
1101.411, 36349.00
1102.507, 36374.00
1103.603, 36169.00
1104.699, 36013.00
1105.795, 36019.00
1106.890, 35947.00
1107.986, 36050.00
1109.081, 35896.00
1110.176, 36086.00
1111.271, 35916.00
1112.366, 35852.00
1113.461, 35755.00
1114.555, 35501.00
1115.649, 35620.00
1116.744, 35930.00
1117.838, 35478.00
1118.931, 35573.00
1120.025, 35368.00
1121.119, 35392.00
1122.212, 35372.00
1123.305, 35568.00
1124.398, 35391.00
1125.491, 35542.00
1126.584, 35128.00
1127.676, 35303.00
1128.768, 35284.00
1129.861, 35426.00
1130.953, 35179.00
1132.044, 35335.00
1133.136, 35248.00
1134.228, 34792.00
1135.319, 35022.00
1136.410, 34894.00
1137.501, 34900.00
1138.592, 35017.00
1139.683, 34869.00
1140.773, 34811.00
1141.864, 34911.00
1142.954, 34749.00
1144.044, 34485.00
1145.134, 34662.00
1146.224, 34530.00
1147.313, 34826.00
1148.402, 34519.00
1149.492, 34568.00
1150.581, 34597.00
1151.670, 34645.00
1152.758, 34483.00
1153.847, 34243.00
1154.935, 34074.00
1156.024, 34445.00
1157.112, 34220.00
1158.200, 34246.00
1159.287, 34040.00
1160.375, 34164.00
1161.462, 34040.00
1162.550, 34064.78
1163.637, 34097.00
1164.724, 34023.00
1165.810, 33897.00
1166.897, 33946.99
1167.983, 34117.00
1169.070, 33902.00
1170.156, 33927.00
1171.242, 33762.00
1172.327, 33828.00
1173.413, 33808.00
1174.499, 33532.00
1175.584, 33618.00
1176.669, 33787.00
1177.754, 33465.00
1178.839, 33534.00
1179.923, 33471.00
1181.008, 33297.00
1182.092, 33442.00
1183.176, 33222.00
1184.260, 33047.00
1185.344, 33314.00
1186.428, 33158.00
1187.511, 33256.00
1188.595, 33361.00
1189.678, 33335.00
1190.761, 33127.00
1191.843, 33187.00
1192.926, 33076.00
1194.009, 33033.00
1195.091, 33126.00
1196.173, 33114.00
1197.255, 33155.00
1198.337, 32909.00
1199.419, 33062.00
1200.500, 33042.00
1201.582, 32828.00
1202.663, 32928.00
1203.744, 32871.00
1204.825, 32714.00
1205.905, 32700.00
1206.986, 32582.00
1208.066, 32469.00
1209.146, 32674.00
1210.226, 32468.00
1211.306, 32476.00
1212.386, 32342.00
1213.466, 32368.47
1214.545, 32699.00
1215.624, 32450.00
1216.703, 32433.00
1217.782, 32439.00
1218.861, 32194.00
1219.939, 32133.00
1221.018, 32337.00
1222.096, 32274.00
1223.174, 32173.00
1224.252, 32238.00
1225.330, 31995.00
1226.407, 31907.00
1227.485, 32169.00
1228.562, 32053.00
1229.639, 31916.00
1230.716, 32127.00
1231.793, 31779.00
1232.869, 31746.00
1233.946, 31928.00
1235.022, 31792.00
1236.098, 31630.00
1237.174, 31676.00
1238.250, 31867.00
1239.325, 31730.00
1240.401, 31754.00
1241.476, 31553.00
1242.551, 31528.00
1243.626, 31448.00
1244.701, 31554.00
1245.776, 31288.00
1246.850, 31460.00
1247.924, 31550.00
1248.999, 31467.00
1250.073, 31384.00
1251.146, 31772.00
1252.220, 32027.00
1253.293, 31509.00
1254.367, 31344.00
1255.440, 31030.00
1256.513, 31214.00
1257.586, 31222.00
1258.658, 31228.00
1259.731, 31221.00
1260.803, 30923.00
1261.875, 31093.00
1262.947, 30878.00
1264.019, 30930.00
1265.091, 30953.00
1266.162, 30910.00
1267.234, 31091.00
1268.305, 30602.00
1269.376, 30977.00
1270.447, 30717.00
1271.517, 30970.00
1272.588, 30797.00
1273.658, 30762.00
1274.729, 30849.00
1275.799, 30644.00
1276.868, 30592.00
1277.938, 30775.00
1279.008, 30635.00
1280.077, 30895.00
1281.146, 30648.00
1282.215, 30567.00
1283.284, 30488.00
1284.353, 30492.00
1285.421, 30463.00
1286.490, 30493.00
1287.558, 30458.16
1288.626, 30476.58
1289.694, 30424.00
1290.762, 30462.00
1291.829, 30483.00
1292.897, 30391.00
1293.964, 30368.84
1295.031, 30332.70
1296.098, 30254.00
1297.165, 30259.00
1298.231, 30284.00
1299.298, 30270.00
1300.364, 30162.00
1301.430, 30336.00
1302.496, 30075.00
1303.562, 30356.00
1304.627, 30079.00
1305.693, 30100.00
1306.758, 29893.00
1307.823, 29817.00
1308.888, 29850.38
1309.953, 30120.00
1311.018, 29868.00
1312.082, 29868.00
1313.146, 29756.00
1314.210, 29713.00
1315.274, 30022.00
1316.338, 30112.00
1317.402, 29902.00
1318.465, 29729.00
1319.529, 30043.00
1320.592, 29626.00
1321.655, 29895.00
1322.718, 29666.00
1323.780, 29569.00
1324.843, 29727.00
1325.905, 29679.00
1326.967, 29408.00
1328.029, 29631.00
1329.091, 29545.00
1330.153, 29696.00
1331.214, 29653.00
1332.275, 29597.00
1333.337, 29447.00
1334.398, 29560.00
1335.458, 29571.00
1336.519, 29612.00
1337.580, 29576.00
1338.640, 29538.52
1339.700, 29440.00
1340.760, 29422.00
1341.820, 29363.00
1342.880, 29338.00
1343.939, 29428.00
1344.999, 29405.00
1346.058, 29335.00
1347.117, 29174.00
1348.176, 29271.00
1349.235, 29233.00
1350.293, 28998.00
1351.351, 29139.00
1352.410, 29099.00
1353.468, 29044.00
1354.526, 29125.00
1355.583, 29174.00
1356.641, 29297.00
1357.698, 29109.00
1358.756, 29141.00
1359.813, 28840.00
1360.869, 29192.00
1361.926, 28868.00
1362.983, 28880.00
1364.039, 29016.00
1365.095, 29021.00
1366.152, 28894.00
1367.207, 29028.00
1368.263, 29094.00
1369.319, 28796.00
1370.374, 28958.00
1371.430, 28859.00
1372.485, 28785.00
1373.540, 28814.00
1374.594, 28845.00
1375.649, 28841.79
1376.703, 28859.74
1377.758, 28861.67
1378.812, 28856.77
1379.866, 28856.73
1380.920, 28830.00
1381.973, 28819.00
1383.027, 28752.00
1384.080, 28717.00
1385.133, 28889.00
1386.186, 28795.00
1387.239, 28934.00
1388.291, 28906.00
1389.344, 28910.00
1390.396, 28689.00
1391.448, 28618.00
1392.500, 28789.00
1393.552, 28712.00
1394.604, 28849.00
1395.655, 28712.00
1396.707, 28609.00
1397.758, 28659.00
1398.809, 28510.00
1399.860, 28574.00
1400.910, 28640.00
1401.961, 28576.00
1403.011, 28794.00
1404.061, 28629.00
1405.111, 28702.00
1406.161, 28797.00
1407.211, 28614.00
1408.260, 28674.00
1409.310, 28645.00
1410.359, 28835.00
1411.408, 28725.41
1412.457, 28781.00
1413.506, 28609.00
1414.554, 28606.00
1415.603, 28597.00
1416.651, 28688.00
1417.699, 28724.00
1418.747, 28684.00
1419.794, 28616.00
1420.842, 28557.00
1421.889, 28661.00
1422.937, 28527.00
1423.984, 28439.00
1425.031, 28491.00
1426.077, 28271.00
1427.124, 28356.00
1428.170, 28220.00
1429.217, 28500.00
1430.263, 28246.00
1431.309, 28439.00
1432.354, 28254.00
1433.400, 28267.00
1434.445, 28299.00
1435.491, 28304.00
1436.536, 28306.00
1437.581, 28149.00
1438.625, 28327.00
1439.670, 28203.00
1440.714, 28364.00
1441.759, 28134.00
1442.803, 28022.00
1443.847, 28207.00
1444.890, 28471.00
1445.934, 27949.00
1446.978, 28191.00
1448.021, 28044.00
1449.064, 28113.00
1450.107, 28095.00
1451.150, 27833.00
1452.192, 27917.00
1453.235, 27927.00
1454.277, 27956.00
1455.319, 27938.00
1456.361, 27918.00
1457.403, 27957.63
1458.445, 27963.00
1459.486, 28011.55
1460.528, 27987.00
1461.569, 27994.00
1462.610, 27852.00
1463.651, 27786.00
1464.691, 27882.00
1465.732, 27709.00
1466.772, 27772.00
1467.812, 27695.00
1468.852, 27585.00
1469.892, 27710.00
1470.932, 27745.00
1471.971, 27628.00
1473.011, 27781.00
1474.050, 27724.00
1475.089, 27587.00
1476.128, 27563.00
1477.166, 27483.00
1478.205, 27523.00
1479.243, 27548.00
1480.282, 27456.00
1481.320, 27558.00
1482.357, 27455.00
1483.395, 27331.00
1484.433, 27477.00
1485.470, 27444.00
1486.507, 27429.00
1487.544, 27378.00
1488.581, 27472.00
1489.618, 27387.00
1490.655, 27494.00
1491.691, 27408.00
1492.727, 27588.00
1493.763, 27474.00
1494.799, 27451.00
1495.835, 27279.00
1496.871, 27280.00
1497.906, 27335.00
1498.941, 27294.00
1499.976, 27325.00
1501.011, 27435.00
1502.046, 27433.65
1503.081, 27439.65
1504.115, 27458.00
1505.149, 27428.00
1506.183, 27281.00
1507.217, 27334.00
1508.251, 27203.00
1509.285, 27326.00
1510.318, 27326.00
1511.352, 27241.00
1512.385, 27287.00
1513.418, 27276.00
1514.450, 27256.00
1515.483, 27202.00
1516.516, 27286.00
1517.548, 27289.40
1518.580, 27341.00
1519.612, 27368.00
1520.644, 27356.70
1521.675, 27205.81
1522.707, 27330.00
1523.738, 27281.00
1524.769, 27260.00
1525.800, 27441.00
1526.831, 27465.00
1527.862, 27275.00
1528.892, 27227.00
1529.923, 27168.00
1530.953, 27153.89
1531.983, 27385.00
1533.013, 27189.00
1534.042, 27430.00
1535.072, 27397.00
1536.101, 27174.00
1537.131, 27308.00
1538.160, 27294.00
1539.188, 27030.00
1540.217, 27398.00
1541.246, 27391.00
1542.274, 27356.00
1543.302, 27285.00
1544.330, 27278.00
1545.358, 27347.00
1546.386, 27282.00
1547.413, 27242.00
1548.441, 27186.00
1549.468, 27315.00
1550.495, 27515.00
1551.522, 27698.00
1552.549, 27475.00
1553.575, 27486.00
1554.602, 27407.00
1555.628, 27431.00
1556.654, 27464.00
1557.680, 27221.00
1558.706, 27137.00
1559.731, 27262.00
1560.757, 27334.00
1561.782, 27424.00
1562.807, 27416.41
1563.832, 27177.00
1564.857, 27352.00
1565.881, 27162.00
1566.906, 27101.00
1567.930, 27371.00
1568.954, 27106.00
1569.978, 27432.00
1571.002, 26996.00
1572.025, 27187.00
1573.049, 27054.00
1574.072, 26954.00
1575.095, 27144.00
1576.118, 26999.00
1577.141, 27194.00
1578.164, 27232.00
##END=



