##NAMES=Titanite
##RRUFFID=R050124
##IDEAL CHEMISTRY=CaTi^4+^SiO_5_
##LOCALITY=Capelinha, Minas Gerais, Brazil
##OWNER=RRUFF
##SOURCE=Carlos and Paulo Vasconcelos
##DESCRIPTION=Yellow tabular crystal
##STATUS=The identification of this mineral has been confirmed by X-ray diffraction and chemical analysis
##URL=rruff.info/R050124
##MEASURED CHEMISTRY=Ca_1.00_(Ti_0.93_Al_0.05_Fe^3+^_0.02_)Si_1.00_O_4_(O)_1.00_
##PIN_ID=M00396
##ORIENTATION=Laser parallel to -a* (-1 0 0). Fiducial mark perpendicular to laser is parallel to -b [0 -1 0]
150.080, 8519.000
151.469, 8705.000
152.858, 9122.000
154.247, 10110.000
155.635, 11040.000
157.024, 12590.000
158.411, 13700.000
159.799, 14980.000
161.187, 15930.000
162.574, 15950.000
163.961, 15860.000
165.348, 14980.000
166.734, 14550.000
168.121, 13600.000
169.507, 12970.000
170.893, 12550.000
172.278, 12230.000
173.664, 12450.000
175.049, 12270.000
176.434, 12630.000
177.819, 12840.000
179.203, 13180.000
180.587, 13510.000
181.971, 13610.000
183.355, 13810.000
184.739, 13650.000
186.122, 13640.000
187.505, 13420.000
188.888, 12990.000
190.271, 13160.000
191.653, 12950.000
193.035, 13310.000
194.417, 13140.000
195.799, 13580.000
197.180, 13710.000
198.562, 13800.000
199.943, 14170.000
201.324, 14300.000
202.704, 14690.000
204.084, 14640.000
205.465, 14900.000
206.844, 15050.000
208.224, 14920.000
209.603, 14780.000
210.983, 14460.000
212.362, 14580.000
213.740, 14240.000
215.119, 14020.000
216.497, 14120.000
217.875, 13960.000
219.253, 14260.000
220.631, 14140.000
222.008, 14510.000
223.385, 14700.000
224.762, 14990.000
226.139, 15290.000
227.515, 15330.000
228.891, 15850.000
230.267, 15950.000
231.643, 16200.000
233.018, 16500.000
234.394, 16250.000
235.769, 16550.000
237.144, 16240.000
238.518, 16340.000
239.893, 16410.000
241.267, 16910.000
242.641, 17430.000
244.014, 18320.000
245.388, 19280.000
246.761, 20260.000
248.134, 21480.000
249.507, 22180.000
250.879, 22990.000
252.252, 23940.000
253.624, 23840.000
254.996, 24460.000
256.367, 24190.000
257.739, 23580.000
259.110, 22530.000
260.481, 21590.000
261.852, 20300.000
263.222, 18650.000
264.592, 17470.000
265.962, 16200.000
267.332, 15310.000
268.702, 14410.000
270.071, 13660.000
271.440, 13560.000
272.809, 12890.000
274.178, 13090.000
275.546, 12760.000
276.915, 13050.000
278.283, 13230.000
279.650, 13560.000
281.018, 14280.000
282.385, 14830.000
283.752, 15760.000
285.119, 16770.000
286.486, 18160.000
287.852, 19540.000
289.218, 20240.000
290.584, 20800.000
291.950, 20250.000
293.316, 19030.000
294.681, 17270.000
296.046, 15580.000
297.411, 13930.000
298.775, 12670.000
300.140, 11990.000
301.504, 11700.000
302.868, 11600.000
304.231, 11870.000
305.595, 12200.000
306.958, 12910.000
308.321, 13650.000
309.684, 15240.000
311.047, 17340.000
312.409, 19810.000
313.771, 22790.000
315.133, 25030.000
316.495, 26850.000
317.856, 26270.000
319.217, 24910.000
320.578, 22480.000
321.939, 20340.000
323.299, 18760.000
324.660, 17190.000
326.020, 16440.000
327.380, 15720.000
328.739, 15500.000
330.099, 15350.000
331.458, 15090.000
332.817, 15260.000
334.176, 14640.000
335.534, 14420.000
336.892, 13870.000
338.251, 13300.000
339.608, 12890.000
340.966, 12400.000
342.323, 11950.000
343.681, 12020.000
345.037, 11950.000
346.394, 12280.000
347.751, 12490.000
349.107, 12950.000
350.463, 12780.000
351.819, 12690.000
353.174, 12170.000
354.530, 11440.000
355.885, 10830.000
357.240, 9906.000
358.594, 9553.000
359.949, 9033.000
361.303, 8658.000
362.657, 8386.000
364.011, 8011.000
365.365, 7918.000
366.718, 7559.000
368.071, 7512.000
369.424, 7328.000
370.777, 7094.000
372.129, 6951.000
373.481, 6693.000
374.833, 6578.000
376.185, 6285.000
377.537, 6087.000
378.888, 5815.000
380.239, 5630.000
381.590, 5443.000
382.941, 5298.000
384.291, 5278.000
385.642, 5178.000
386.992, 5204.000
388.341, 5172.000
389.691, 5059.000
391.040, 5094.000
392.389, 5002.000
393.738, 5022.000
395.087, 4930.000
396.435, 4873.000
397.784, 4964.000
399.132, 4976.000
400.479, 5086.000
401.827, 5227.000
403.174, 5342.000
404.521, 5639.000
405.868, 5808.000
407.215, 6236.000
408.561, 6766.000
409.908, 7326.000
411.254, 8256.000
412.599, 9131.000
413.945, 10730.000
415.290, 12290.000
416.636, 14080.000
417.980, 16840.000
419.325, 18770.000
420.670, 21060.000
422.014, 22000.000
423.358, 22190.000
424.702, 21460.000
426.045, 19610.000
427.389, 17940.000
428.732, 15660.000
430.075, 13920.000
431.417, 12140.000
432.760, 10780.000
434.102, 9630.000
435.444, 8762.000
436.786, 8125.000
438.127, 7344.000
439.469, 6998.000
440.810, 6588.000
442.151, 6160.000
443.492, 6024.000
444.832, 5722.000
446.172, 5534.000
447.512, 5261.000
448.852, 5150.000
450.192, 5070.000
451.531, 4994.000
452.870, 4886.000
454.209, 4852.000
455.548, 4967.000
456.887, 4907.000
458.225, 4930.000
459.563, 4996.000
460.901, 4972.000
462.238, 5065.000
463.576, 5066.000
464.913, 5114.000
466.250, 5152.000
467.587, 5075.000
468.923, 5220.000
470.259, 5262.000
471.596, 5295.000
472.931, 5488.000
474.267, 5590.000
475.603, 5844.000
476.938, 6002.000
478.273, 6282.000
479.608, 6577.000
480.942, 6689.000
482.276, 7102.000
483.611, 7378.000
484.944, 7495.000
486.278, 7787.000
487.612, 8026.000
488.945, 8206.000
490.278, 8204.000
491.611, 8395.000
492.943, 8442.000
494.276, 8459.000
495.608, 8591.000
496.940, 8307.000
498.271, 8442.000
499.603, 8314.000
500.934, 8175.000
502.265, 8234.000
503.596, 8024.000
504.927, 8122.000
506.257, 7991.000
507.587, 8029.000
508.917, 8155.000
510.247, 8093.000
511.577, 8324.000
512.906, 8469.000
514.235, 8636.000
515.564, 8769.000
516.892, 8877.000
518.221, 9131.000
519.549, 9154.000
520.877, 9287.000
522.205, 9516.000
523.533, 9612.000
524.860, 9814.000
526.187, 9869.000
527.514, 10190.000
528.841, 10490.000
530.167, 10590.000
531.493, 11160.000
532.820, 11260.000
534.145, 11800.000
535.471, 12050.000
536.796, 12380.000
538.122, 12910.000
539.447, 12810.000
540.771, 13210.000
542.096, 13230.000
543.420, 13100.000
544.744, 12970.000
546.068, 12660.000
547.392, 12630.000
548.715, 12040.000
550.039, 11650.000
551.362, 11380.000
552.684, 10840.000
554.007, 10510.000
555.329, 10090.000
556.652, 9899.000
557.973, 9600.000
559.295, 9356.000
560.617, 9709.000
561.938, 9658.000
563.259, 10190.000
564.580, 10570.000
565.901, 11260.000
567.221, 12050.000
568.541, 12630.000
569.861, 13490.000
571.181, 14180.000
572.501, 14540.000
573.820, 15250.000
575.139, 15640.000
576.458, 16280.000
577.777, 16890.000
579.095, 17760.000
580.414, 18470.000
581.732, 19090.000
583.049, 20560.000
584.367, 21490.000
585.685, 22700.000
587.002, 24380.000
588.319, 25390.000
589.636, 27200.000
590.952, 28720.000
592.268, 30890.000
593.585, 33320.000
594.900, 34560.000
596.216, 37480.000
597.532, 39380.000
598.847, 42520.000
600.162, 44410.000
601.477, 46290.000
602.792, 49070.000
604.106, 50380.000
605.420, 52240.000
606.734, 53770.000
608.048, 53460.000
609.361, 54560.000
610.675, 53280.000
611.988, 53670.000
613.301, 52640.000
614.614, 50390.000
615.926, 49890.000
617.238, 47910.000
618.550, 45750.000
619.862, 45180.000
621.174, 42590.000
622.485, 41810.000
623.797, 39120.000
625.108, 38500.000
626.418, 36330.000
627.729, 34940.000
629.039, 33960.000
630.349, 31820.000
631.659, 30790.000
632.969, 29750.000
634.279, 28150.000
635.588, 27600.000
636.897, 26110.000
638.206, 25380.000
639.515, 24300.000
640.823, 23590.000
642.131, 22940.000
643.439, 22030.000
644.747, 21370.000
646.055, 20990.000
647.362, 20130.000
648.669, 19960.000
649.976, 19170.000
651.283, 18950.000
652.589, 18450.000
653.896, 17670.000
655.202, 17780.000
656.508, 16880.000
657.814, 17010.000
659.119, 16290.000
660.424, 15990.000
661.729, 15690.000
663.034, 15270.000
664.339, 15220.000
665.643, 14840.000
666.947, 14540.000
668.251, 14310.000
669.555, 13990.104
670.859, 13880.000
672.162, 13480.000
673.465, 13230.000
674.768, 13040.000
676.071, 12680.000
677.373, 12610.000
678.676, 12330.000
679.978, 12180.000
681.280, 11940.000
682.581, 11660.000
683.883, 11620.000
685.184, 11420.000
686.485, 11070.000
687.786, 11260.000
689.087, 10700.000
690.387, 10800.000
691.687, 10600.000
692.987, 10350.000
694.287, 10284.788
695.586, 10040.000
696.886, 9886.000
698.185, 9916.000
699.484, 9593.000
700.783, 9598.000
702.081, 9326.000
703.379, 9261.000
704.677, 9134.000
705.975, 8971.000
707.273, 8961.000
708.570, 8653.000
709.868, 8789.000
711.165, 8456.000
712.462, 8308.000
713.758, 8401.000
715.055, 8173.000
716.351, 8115.000
717.647, 7972.000
718.943, 7887.000
720.238, 7850.000
721.533, 7724.000
722.829, 7704.000
724.124, 7560.000
725.418, 7509.000
726.713, 7528.000
728.007, 7260.000
729.301, 7302.000
730.595, 7176.000
731.889, 7133.000
733.182, 7082.000
734.476, 6923.000
735.769, 6888.000
737.061, 6816.000
738.354, 6747.000
739.647, 6680.000
740.939, 6553.000
742.231, 6537.000
743.523, 6390.000
744.814, 6278.000
746.106, 6296.000
747.397, 6208.000
748.688, 6185.000
749.978, 6110.000
751.269, 5939.000
752.559, 5999.000
753.849, 5860.000
755.139, 5828.000
756.429, 5809.000
757.719, 5696.000
759.008, 5760.000
760.297, 5676.000
761.586, 5704.000
762.875, 5645.000
764.163, 5568.000
765.451, 5634.000
766.739, 5488.000
768.027, 5568.000
769.315, 5632.000
770.602, 5446.000
771.890, 5600.000
773.177, 5493.000
774.463, 5497.000
775.750, 5525.000
777.036, 5438.000
778.323, 5543.000
779.609, 5422.000
780.894, 5361.000
782.180, 5457.000
783.465, 5343.000
784.750, 5417.000
786.035, 5395.000
787.320, 5322.000
788.605, 5408.000
789.889, 5296.000
791.173, 5415.000
792.457, 5360.000
793.741, 5340.000
795.024, 5540.000
796.307, 5389.000
797.591, 5509.000
798.873, 5476.000
800.156, 5450.000
801.439, 5659.000
802.721, 5687.000
804.003, 5798.000
805.285, 5920.000
806.566, 5904.000
807.848, 6158.000
809.129, 6265.000
810.410, 6433.000
811.691, 6763.000
812.971, 6696.000
814.252, 7072.000
815.532, 7088.000
816.812, 7141.000
818.092, 7377.000
819.371, 7325.000
820.651, 7513.000
821.930, 7504.000
823.209, 7605.000
824.488, 7628.000
825.766, 7602.000
827.045, 7887.000
828.323, 7740.000
829.601, 7744.000
830.878, 7993.000
832.156, 7789.000
833.433, 8064.000
834.710, 8067.000
835.987, 8154.000
837.264, 8409.000
838.540, 8537.000
839.817, 9060.000
841.093, 9126.000
842.369, 9444.000
843.644, 10100.000
844.920, 10170.000
846.195, 10910.000
847.470, 11380.000
848.745, 11730.000
850.020, 12900.000
851.294, 13090.000
852.568, 13830.000
853.842, 14480.000
855.116, 14850.000
856.390, 15700.000
857.663, 15710.000
858.936, 16190.000
860.209, 16810.000
861.482, 17130.000
862.755, 18070.000
864.027, 18790.000
865.299, 19780.000
866.571, 21770.000
867.843, 22690.000
869.115, 24320.000
870.386, 24980.000
871.657, 25350.000
872.928, 25500.000
874.199, 24840.000
875.470, 23840.000
876.740, 22850.000
878.010, 22000.000
879.280, 21640.000
880.550, 20800.000
881.820, 20320.000
883.089, 20100.000
884.358, 18980.000
885.627, 18220.000
886.896, 17130.000
888.164, 15680.000
889.433, 14820.000
890.701, 13240.000
891.969, 12170.000
893.236, 11210.000
894.504, 10230.000
895.771, 9740.000
897.038, 9055.000
898.305, 8596.000
899.572, 8475.000
900.838, 8050.000
902.105, 8174.000
903.371, 7996.000
904.637, 7941.000
905.902, 8284.000
907.168, 8246.000
908.433, 8605.000
909.698, 8344.000
910.963, 8501.000
912.228, 8446.000
913.492, 7990.000
914.757, 7536.000
916.021, 7000.000
917.285, 6451.000
918.548, 6020.000
919.812, 5467.000
921.075, 5063.000
922.338, 4817.000
923.601, 4440.000
924.864, 4308.000
926.126, 4090.000
927.388, 3978.000
928.650, 3854.000
929.912, 3777.000
931.174, 3676.000
932.435, 3609.648
933.697, 3507.000
934.958, 3499.000
936.218, 3428.000
937.479, 3384.000
938.739, 3380.000
940.000, 3324.000
941.260, 3318.000
942.520, 3312.000
943.779, 3270.000
945.039, 3298.000
946.298, 3220.000
947.557, 3306.000
948.816, 3259.000
950.074, 3279.000
951.333, 3336.000
952.591, 3264.000
953.849, 3360.000
955.107, 3392.000
956.365, 3299.000
957.622, 3402.000
958.879, 3272.000
960.136, 3355.000
961.393, 3332.000
962.650, 3331.000
963.906, 3370.000
965.162, 3389.000
966.418, 3400.000
967.674, 3434.000
968.930, 3405.000
970.185, 3430.000
971.441, 3438.000
972.696, 3419.000
973.950, 3459.000
975.205, 3457.507
976.459, 3472.000
977.714, 3468.000
978.968, 3450.000
980.222, 3417.000
981.475, 3383.000
982.729, 3436.000
983.982, 3399.000
985.235, 3412.000
986.488, 3471.000
987.740, 3431.000
988.993, 3463.000
990.245, 3456.000
991.497, 3402.000
992.749, 3446.000
994.000, 3430.000
995.252, 3381.000
996.503, 3421.000
997.754, 3407.000
999.005, 3470.000
1000.256, 3467.000
1001.506, 3459.000
1002.756, 3534.000
1004.006, 3501.000
1005.256, 3435.000
1006.506, 3534.000
1007.755, 3503.000
1009.005, 3584.000
1010.254, 3608.000
1011.502, 3591.000
1012.751, 3522.000
1014.000, 3580.000
1015.248, 3526.000
1016.496, 3621.000
1017.744, 3510.000
1018.991, 3584.000
1020.239, 3606.000
1021.486, 3545.000
1022.733, 3592.000
1023.980, 3537.000
1025.227, 3452.000
1026.473, 3409.000
1027.719, 3203.000
1028.965, 3202.000
1030.211, 3089.000
1031.457, 3158.000
1032.702, 3044.000
1033.948, 2944.000
1035.193, 2982.000
1036.438, 2893.000
1037.682, 2854.000
1038.927, 2875.000
1040.171, 2843.000
1041.415, 2846.000
1042.659, 2845.000
1043.903, 2739.000
1045.146, 2766.000
1046.390, 2682.000
1047.633, 2693.000
1048.876, 2698.000
1050.118, 2659.000
1051.361, 2645.000
1052.603, 2637.000
1053.845, 2586.000
1055.087, 2618.000
1056.329, 2584.000
1057.571, 2582.000
1058.812, 2606.000
1060.053, 2561.000
1061.294, 2597.000
1062.535, 2597.000
1063.775, 2557.000
1065.016, 2584.000
1066.256, 2585.000
1067.496, 2606.000
1068.736, 2596.000
1069.975, 2601.000
1071.214, 2660.000
1072.454, 2626.000
1073.693, 2624.000
1074.931, 2668.000
1076.170, 2589.000
1077.408, 2640.000
1078.647, 2678.000
1079.885, 2683.000
1081.122, 2766.000
1082.360, 2756.760
1083.597, 2700.000
1084.835, 2780.000
1086.072, 2761.000
1087.308, 2791.000
1088.545, 2767.000
1089.781, 2737.000
1091.018, 2745.844
1092.254, 2704.000
1093.490, 2715.000
1094.725, 2738.000
1095.961, 2690.000
1097.196, 2672.000
1098.431, 2599.000
1099.666, 2602.000
1100.900, 2554.000
1102.135, 2527.000
1103.369, 2570.000
1104.603, 2552.000
1105.837, 2471.000
1107.071, 2536.000
1108.304, 2514.000
1109.538, 2487.000
1110.771, 2516.000
1112.004, 2491.000
1113.236, 2511.000
1114.469, 2503.000
1115.701, 2458.000
1116.933, 2449.000
1118.165, 2462.000
1119.397, 2474.000
1120.629, 2440.000
1121.860, 2442.000
1123.091, 2506.000
1124.322, 2480.000
1125.553, 2486.000
1126.783, 2502.000
1128.014, 2419.000
1129.244, 2460.000
1130.474, 2432.000
1131.704, 2453.000
1132.933, 2498.000
1134.163, 2455.000
1135.392, 2469.000
1136.621, 2459.000
1137.850, 2425.000
1139.079, 2465.000
1140.307, 2451.000
1141.535, 2499.000
1142.763, 2471.000
1143.991, 2491.000
1145.219, 2483.000
1146.446, 2452.000
1147.674, 2469.000
1148.901, 2458.464
1150.128, 2504.000
1151.354, 2478.000
1152.581, 2511.000
1153.807, 2556.000
1155.033, 2541.000
1156.259, 2590.000
1157.485, 2548.000
1158.710, 2662.000
1159.936, 2596.000
1161.161, 2648.000
1162.386, 2695.000
1163.611, 2704.000
1164.835, 2689.000
1166.060, 2771.000
1167.284, 2730.000
1168.508, 2900.000
1169.732, 2830.000
1170.955, 2962.000
1172.179, 3111.000
1173.402, 3178.000
1174.625, 3367.000
1175.848, 3551.000
1177.070, 3579.000
1178.293, 3665.000
1179.515, 3738.000
1180.737, 3679.000
1181.959, 3628.000
1183.181, 3406.000
1184.402, 3358.000
1185.624, 3262.000
1186.845, 3106.000
1188.066, 3123.000
1189.286, 2978.000
1190.507, 2994.000
1191.727, 3015.000
1192.947, 2918.000
1194.167, 3002.000
1195.387, 3016.000
1196.607, 2952.000
1197.826, 3014.000
1199.045, 2925.000
1200.264, 2955.000
1201.483, 2910.000
1202.702, 2909.000
1203.920, 2916.000
1205.138, 2938.000
1206.356, 2940.953
1207.574, 2961.000
1208.792, 2982.000
1210.009, 2936.000
1211.227, 2994.000
1212.444, 2961.000
1213.661, 3010.000
1214.877, 3058.000
1216.094, 2849.000
1217.310, 2915.000
1218.526, 2898.000
1219.742, 2802.000
1220.958, 2874.000
1222.173, 2754.000
1223.389, 2757.000
1224.604, 2855.000
1225.819, 2809.000
1227.034, 2824.000
1228.248, 2843.000
1229.463, 2811.000
1230.677, 2878.000
1231.891, 2842.000
1233.105, 2866.000
1234.318, 2857.000
1235.532, 2894.000
1236.745, 2886.000
1237.958, 2886.000
1239.171, 2912.000
1240.384, 2904.000
1241.596, 2916.000
1242.809, 2925.184
1244.021, 2988.000
1245.233, 2940.000
1246.444, 2979.000
1247.656, 2989.000
1248.867, 2901.000
1250.079, 2974.000
1251.290, 2858.000
1252.500, 2846.000
1253.711, 2854.000
1254.921, 2768.000
1256.132, 2700.000
1257.342, 2694.000
1258.552, 2621.000
1259.761, 2646.000
1260.971, 2562.000
1262.180, 2571.000
1263.389, 2571.000
1264.598, 2506.000
1265.807, 2547.000
1267.015, 2555.000
1268.223, 2537.000
1269.432, 2552.000
1270.640, 2535.000
1271.847, 2527.000
1273.055, 2514.000
1274.262, 2494.000
1275.470, 2441.000
1276.677, 2540.000
1277.883, 2448.000
1279.090, 2470.000
1280.296, 2452.000
1281.503, 2417.000
1282.709, 2437.000
1283.915, 2448.000
1285.120, 2418.000
1286.326, 2483.000
1287.531, 2423.000
1288.736, 2498.000
1289.941, 2523.000
1291.146, 2540.000
1292.350, 2558.000
1293.555, 2584.000
1294.759, 2602.000
1295.963, 2629.000
1297.167, 2638.853
1298.370, 2645.736
1299.574, 2663.000
1300.777, 2635.000
1301.980, 2655.000
1303.183, 2624.000
1304.386, 2618.000
1305.588, 2670.000
1306.790, 2587.000
1307.993, 2636.000
1309.195, 2679.000
1310.396, 2599.000
1311.598, 2627.000
1312.799, 2655.000
1314.000, 2652.000
1315.201, 2704.000
1316.402, 2639.000
1317.603, 2668.000
1318.803, 2699.000
1320.003, 2626.000
1321.203, 2688.000
1322.403, 2627.000
1323.603, 2583.000
1324.802, 2630.000
1326.002, 2548.000
1327.201, 2538.000
1328.400, 2565.000
1329.599, 2537.000
1330.797, 2524.000
1331.995, 2534.000
1333.194, 2438.000
1334.392, 2472.000
1335.589, 2444.000
1336.787, 2418.000
1337.985, 2460.000
1339.182, 2396.000
1340.379, 2385.000
1341.576, 2428.000
1342.772, 2393.000
1343.969, 2389.000
1345.165, 2412.000
1346.361, 2390.000
1347.557, 2423.000
1348.753, 2375.000
1349.949, 2342.000
1351.144, 2387.000
1352.339, 2420.000
1353.534, 2319.000
1354.729, 2388.000
1355.924, 2320.000
1357.118, 2368.000
1358.312, 2328.000
1359.506, 2371.000
1360.700, 2375.000
1361.894, 2319.000
1363.088, 2280.000
1364.281, 2359.000
1365.474, 2286.000
1366.667, 2328.000
1367.860, 2334.000
1369.052, 2270.000
1370.245, 2312.000
1371.437, 2298.000
1372.629, 2263.000
1373.821, 2319.000
1375.013, 2302.000
1376.204, 2267.000
1377.395, 2326.000
1378.586, 2278.000
1379.777, 2324.000
1380.968, 2364.000
1382.159, 2296.000
1383.349, 2370.000
1384.539, 2334.000
1385.729, 2313.000
1386.919, 2336.000
1388.109, 2324.000
1389.298, 2306.000
1390.487, 2351.000
1391.676, 2310.000
1392.865, 2342.000
1394.054, 2340.000
1395.242, 2305.000
1396.431, 2393.000
1397.619, 2363.000
1398.807, 2316.000
1399.995, 2339.000
1401.182, 2347.000
1402.370, 2360.000
1403.557, 2378.000
1404.744, 2343.000
1405.931, 2359.000
1407.118, 2350.000
1408.304, 2377.000
1409.490, 2383.000
1410.676, 2356.000
1411.862, 2396.000
1413.048, 2360.000
1414.234, 2378.000
1415.419, 2385.000
1416.604, 2406.000
1417.789, 2352.000
1418.974, 2356.000
1420.159, 2389.000
1421.343, 2388.000
1422.528, 2448.000
1423.712, 2395.000
1424.896, 2395.000
1426.079, 2452.000
1427.263, 2408.000
1428.446, 2484.000
1429.629, 2475.000
1430.812, 2433.000
1431.995, 2461.000
1433.178, 2501.000
1434.360, 2472.000
1435.543, 2541.000
1436.725, 2505.000
1437.907, 2519.000
1439.088, 2601.000
1440.270, 2564.000
1441.451, 2586.000
1442.632, 2663.000
1443.813, 2597.000
1444.994, 2642.000
1446.175, 2700.000
1447.355, 2639.000
1448.535, 2698.000
1449.715, 2669.000
1450.895, 2695.000
1452.075, 2729.000
1453.255, 2665.000
1454.434, 2715.000
1455.613, 2705.000
1456.792, 2673.000
1457.971, 2688.000
1459.149, 2632.000
1460.328, 2653.000
1461.506, 2703.000
1462.684, 2637.000
1463.862, 2619.000
1465.040, 2654.000
1466.217, 2627.000
1467.395, 2614.000
1468.572, 2615.000
1469.749, 2596.000
1470.925, 2542.000
1472.102, 2592.000
1473.278, 2533.000
1474.455, 2531.000
1475.631, 2542.000
1476.807, 2460.000
1477.982, 2571.000
1479.158, 2508.000
1480.333, 2496.000
1481.508, 2585.000
1482.683, 2454.000
1483.858, 2434.000
1485.033, 2486.000
1486.207, 2417.000
1487.381, 2450.000
1488.555, 2471.000
1489.729, 2396.000
1490.903, 2473.000
1492.076, 2422.000
1493.250, 2382.000
1494.423, 2443.000
1495.596, 2349.000
1496.769, 2407.000
1497.941, 2470.000
1499.114, 2385.000
1500.286, 2420.000
1501.458, 2415.000
1502.630, 2391.000
1503.802, 2428.000
1504.973, 2415.000
1506.145, 2396.000
1507.316, 2448.000
1508.487, 2366.000
1509.657, 2408.000
1510.828, 2476.000
1511.999, 2366.000
1513.169, 2399.000
1514.339, 2434.000
1515.509, 2419.000
1516.678, 2440.000
##END=



