##NAMES=Trilithionite
##RRUFFID=R040101
##IDEAL CHEMISTRY=KLi_1.5_Al_1.5_(Si_3_Al)O_10_F_2_
##LOCALITY=Zambezi Region, Mozambique
##OWNER=RRUFF
##SOURCE=University of Arizona Mineral Museum
##DESCRIPTION=Aggregate of purple hexagonal plates, polytype is 2M1
##STATUS=The identification of this mineral has been confirmed by X-ray diffraction and chemical analysis
##URL=rruff.info/R040101
##MEASURED CHEMISTRY=(K_0.84_Li_0.13_Na_0.02_)(Li_0.54_Al_0.44_Mn_0.02_)_3_(Si_0.82_Al_0.18_)_4_O_10_F_2.00_
##PIN_ID=L00533
##ORIENTATION=Laser parallel to -b* (0 -1 0). Fiducial mark perpendicular to laser is parallel to c [0 0 1]
117.729, 18462.000
119.119, 18604.000
120.508, 18867.000
121.897, 18660.000
123.286, 19121.000
124.675, 19081.000
126.063, 19242.000
127.452, 19475.000
128.840, 19426.000
130.228, 19539.000
131.615, 19448.000
133.003, 19834.000
134.390, 19770.000
135.777, 20036.000
137.164, 19890.000
138.550, 20135.000
139.937, 20069.000
141.323, 20252.000
142.709, 20102.000
144.094, 20475.000
145.480, 20220.000
146.865, 20514.000
148.250, 20532.000
149.635, 20575.000
151.019, 20681.000
152.403, 20736.000
153.788, 20912.000
155.171, 20849.000
156.555, 21132.000
157.939, 21040.000
159.322, 21308.000
160.705, 21428.000
162.088, 21540.000
163.470, 21757.000
164.853, 21937.316
166.235, 22088.000
167.617, 22425.000
168.998, 22734.000
170.380, 23065.000
171.761, 23265.000
173.142, 23673.000
174.523, 24204.000
175.904, 24389.000
177.284, 24569.000
178.664, 25070.000
180.044, 24955.000
181.424, 25642.000
182.803, 25449.000
184.183, 25326.000
185.562, 25213.000
186.940, 25182.000
188.319, 24766.000
189.698, 24797.000
191.076, 24573.000
192.454, 24818.000
193.831, 24949.000
195.209, 25026.000
196.586, 25374.000
197.963, 25256.000
199.340, 25649.000
200.717, 25467.000
202.093, 25674.000
203.470, 25222.000
204.846, 25092.000
206.221, 24940.000
207.597, 25110.000
208.972, 25251.000
210.347, 24880.000
211.722, 24832.000
213.097, 25202.000
214.472, 25190.000
215.846, 25400.000
217.220, 25226.000
218.594, 25092.744
219.967, 24852.434
221.341, 24507.000
222.714, 24318.000
224.087, 23824.000
225.460, 23950.000
226.832, 23808.000
228.204, 23569.000
229.577, 23660.000
230.948, 23547.000
232.320, 23651.000
233.692, 23716.000
235.063, 23829.596
236.434, 23922.000
237.805, 24180.000
239.175, 24496.000
240.545, 24694.000
241.916, 25305.000
243.286, 25334.000
244.655, 25956.000
246.025, 26192.000
247.394, 26600.000
248.763, 27029.000
250.132, 27206.000
251.501, 28012.000
252.869, 28118.000
254.237, 29243.000
255.605, 30198.000
256.973, 31536.000
258.340, 33352.000
259.708, 34695.000
261.075, 36420.000
262.442, 38016.000
263.808, 38905.000
265.175, 38842.000
266.541, 38517.000
267.907, 37608.000
269.273, 35720.000
270.639, 34276.000
272.004, 32348.000
273.369, 31112.000
274.734, 29726.000
276.099, 28618.000
277.463, 27785.000
278.828, 27344.000
280.192, 26860.000
281.556, 26165.000
282.919, 26120.000
284.283, 25953.000
285.646, 25826.000
287.009, 25650.848
288.372, 25200.000
289.734, 25266.000
291.097, 25220.000
292.459, 25082.000
293.821, 25390.000
295.183, 25050.000
296.544, 25386.000
297.905, 25029.000
299.266, 25384.000
300.627, 25418.000
301.988, 25288.000
303.348, 25629.000
304.709, 25184.000
306.069, 25316.000
307.428, 25526.000
308.788, 25397.000
310.147, 25421.000
311.507, 25387.000
312.865, 25195.000
314.224, 25379.000
315.583, 25173.000
316.941, 25321.000
318.299, 25079.000
319.657, 24902.000
321.015, 25051.000
322.372, 25090.000
323.729, 25017.000
325.086, 24963.000
326.443, 25061.000
327.800, 24857.000
329.156, 25132.000
330.512, 24932.000
331.868, 24730.000
333.224, 24896.000
334.579, 24896.000
335.935, 24898.000
337.290, 25042.000
338.645, 24791.000
339.999, 24966.000
341.354, 25041.000
342.708, 24872.000
344.062, 24987.000
345.416, 24952.000
346.769, 24978.000
348.123, 24937.000
349.476, 25065.000
350.829, 24920.000
352.182, 25068.000
353.534, 25283.000
354.887, 25344.000
356.239, 25583.000
357.591, 25606.000
358.942, 25674.000
360.294, 25550.000
361.645, 25926.000
362.996, 25909.000
364.347, 26070.000
365.698, 26629.000
367.048, 26264.000
368.398, 26642.000
369.748, 26544.000
371.098, 26866.000
372.448, 27043.000
373.797, 27184.000
375.146, 27217.000
376.495, 27400.000
377.844, 28033.000
379.192, 27690.000
380.540, 28292.000
381.889, 27904.000
383.236, 28258.000
384.584, 28412.000
385.932, 28603.000
387.279, 28798.000
388.626, 28883.000
389.973, 29481.000
391.319, 29328.000
392.666, 29984.000
394.012, 30144.000
395.358, 30409.000
396.704, 30648.000
398.049, 31150.000
399.394, 32152.000
400.740, 31958.000
402.084, 32462.000
403.429, 32745.000
404.774, 32660.000
406.118, 32880.906
407.462, 33020.000
408.806, 32742.000
410.150, 32906.000
411.493, 32539.000
412.836, 32461.000
414.179, 32078.000
415.522, 31408.000
416.865, 31443.000
418.207, 30924.000
419.549, 30128.000
420.891, 30008.000
422.233, 29568.000
423.575, 29709.000
424.916, 28892.000
426.257, 28928.000
427.598, 28880.000
428.939, 28470.000
430.279, 28600.000
431.619, 28196.000
432.959, 28067.000
434.299, 28250.000
435.639, 28189.000
436.978, 27978.000
438.318, 28305.000
439.657, 27720.000
440.996, 28024.000
442.334, 28081.000
443.673, 27895.000
445.011, 27986.000
446.349, 28000.000
447.687, 27920.000
449.024, 27749.000
450.361, 28157.000
451.699, 27826.000
453.036, 27982.000
454.372, 27658.000
455.709, 28032.000
457.045, 27548.000
458.381, 27731.000
459.717, 27988.000
461.053, 27927.000
462.388, 28012.000
463.724, 28032.000
465.059, 28355.000
466.394, 27986.000
467.728, 28141.000
469.063, 28382.000
470.397, 28224.000
471.731, 28312.000
473.065, 28741.000
474.398, 28508.000
475.732, 29056.000
477.065, 28811.000
478.398, 28964.000
479.731, 29022.000
481.063, 28904.000
482.396, 28629.000
483.728, 28646.000
485.060, 28605.000
486.391, 28339.000
487.723, 28273.000
489.054, 28264.000
490.385, 28058.000
491.716, 28056.000
493.047, 27993.000
494.377, 27834.000
495.708, 27883.000
497.038, 27821.000
498.368, 27691.000
499.697, 27649.000
501.027, 27708.000
502.356, 28029.000
503.685, 27850.000
505.014, 27964.000
506.342, 27676.000
507.671, 28021.000
508.999, 28054.000
510.327, 27707.000
511.655, 27855.000
512.982, 27776.000
514.310, 28150.000
515.637, 27876.000
516.964, 28167.000
518.291, 28072.000
519.617, 28484.000
520.944, 28224.000
522.270, 27992.000
523.596, 28514.000
524.921, 28433.000
526.247, 28537.000
527.572, 28357.000
528.897, 28585.000
530.222, 28760.000
531.547, 28861.000
532.871, 29038.000
534.196, 28938.000
535.520, 28844.000
536.844, 29161.000
538.167, 29402.000
539.491, 29342.000
540.814, 29633.000
542.137, 29507.000
543.460, 29856.000
544.783, 30074.000
546.105, 29861.000
547.427, 30390.000
548.749, 30648.000
550.071, 30610.000
551.393, 31069.000
552.714, 31459.000
554.035, 32024.000
555.356, 31926.000
556.677, 31868.000
557.998, 32390.000
559.318, 32496.000
560.638, 32685.000
561.958, 32435.000
563.278, 32350.000
564.597, 32404.000
565.917, 31846.000
567.236, 31920.000
568.555, 31472.000
569.874, 31137.000
571.192, 31234.000
572.511, 30858.000
573.829, 30586.000
575.147, 30396.000
576.464, 30436.000
577.782, 29950.000
579.099, 30174.000
580.416, 29694.000
581.733, 29497.000
583.050, 29958.000
584.366, 29460.000
585.683, 29787.000
586.999, 29996.000
588.315, 29402.000
589.630, 29654.000
590.946, 29883.000
592.261, 29892.000
593.576, 29307.000
594.891, 29488.000
596.206, 29573.000
597.520, 29660.000
598.834, 29882.000
600.148, 29666.000
601.462, 29816.000
602.776, 29680.000
604.089, 30004.000
605.402, 29790.000
606.715, 30355.000
608.028, 30394.000
609.341, 30215.000
610.653, 30152.000
611.965, 30583.000
613.277, 30220.000
614.589, 30592.000
615.901, 30380.000
617.212, 30945.000
618.523, 30699.000
619.834, 30676.000
621.145, 31105.000
622.456, 31112.000
623.766, 30917.000
625.076, 31595.000
626.386, 31405.000
627.696, 31690.000
629.006, 31195.000
630.315, 31884.000
631.624, 31632.000
632.933, 31624.000
634.242, 32338.000
635.551, 31818.000
636.859, 31925.000
638.167, 31848.000
639.475, 32156.000
640.783, 32009.801
642.090, 31653.000
643.398, 31763.000
644.705, 31792.000
646.012, 31465.000
647.318, 31522.000
648.625, 31646.000
649.931, 31659.000
651.237, 31434.000
652.543, 31139.000
653.849, 31400.000
655.155, 31798.000
656.460, 31617.000
657.765, 31392.000
659.070, 31351.000
660.375, 31824.000
661.679, 31881.000
662.984, 31408.000
664.288, 31673.000
665.592, 31458.000
666.895, 32075.000
668.199, 31451.000
669.502, 32276.000
670.805, 31801.000
672.108, 32056.000
673.411, 32327.000
674.713, 32045.000
676.016, 32628.000
677.318, 32777.000
678.620, 32899.000
679.921, 33299.000
681.223, 33602.000
682.524, 33622.000
683.825, 34092.000
685.126, 34681.000
686.427, 35252.000
687.727, 35388.000
689.028, 35941.000
690.328, 36476.000
691.628, 37504.000
692.927, 37825.000
694.227, 39175.000
695.526, 39438.000
696.825, 41702.000
698.124, 42048.000
699.423, 44192.000
700.721, 44984.000
702.020, 46993.000
703.318, 48792.000
704.616, 50474.000
705.913, 51904.000
707.211, 54685.000
708.508, 57459.000
709.805, 58949.000
711.102, 59505.000
712.399, 61064.000
713.695, 58608.000
714.992, 57334.000
716.288, 53308.000
717.584, 50468.000
718.879, 46152.000
720.175, 44016.000
721.470, 42268.000
722.765, 39908.000
724.060, 38678.000
725.355, 37441.000
726.649, 36627.000
727.944, 35947.000
729.238, 35852.000
730.532, 35009.000
731.825, 34964.000
733.119, 34790.000
734.412, 34432.000
735.705, 34126.000
736.998, 34244.000
738.291, 34112.000
739.584, 34462.000
740.876, 34258.000
742.168, 34861.000
743.460, 34455.000
744.752, 35153.000
746.043, 35080.000
747.334, 35379.000
748.626, 35414.000
749.916, 35494.000
751.207, 35418.000
752.498, 35727.000
753.788, 35586.000
755.078, 35283.000
756.368, 35382.000
757.658, 35514.000
758.947, 35116.000
760.237, 35376.000
761.526, 34859.000
762.815, 34922.000
764.104, 34653.000
765.392, 34273.000
766.680, 34116.000
767.969, 33627.000
769.257, 34090.000
770.544, 33651.000
771.832, 33584.000
773.119, 33875.000
774.406, 33390.000
775.693, 33592.000
776.980, 33187.000
778.267, 33522.000
779.553, 33524.000
780.839, 33768.000
782.125, 33590.000
783.411, 33690.000
784.697, 33544.000
785.982, 33635.000
787.267, 33338.000
788.552, 33545.000
789.837, 33333.000
791.122, 33676.000
792.406, 33064.000
793.690, 33344.000
794.974, 33142.000
796.258, 33007.000
797.542, 32946.000
798.825, 32998.000
800.108, 33139.000
801.391, 32684.000
802.674, 32765.000
803.957, 32631.000
805.239, 32731.000
806.522, 33059.000
807.804, 32334.000
809.085, 32789.000
810.367, 33017.000
811.649, 32613.000
812.930, 32722.000
814.211, 32787.000
815.492, 32440.000
816.772, 32918.000
818.053, 33032.000
819.333, 32593.000
820.613, 32576.000
821.893, 32594.955
823.173, 32592.000
824.452, 32749.000
825.732, 33009.000
827.011, 33225.000
828.290, 32701.000
829.568, 33193.000
830.847, 32724.000
832.125, 33129.000
833.403, 33117.000
834.681, 32693.000
835.959, 33050.000
837.236, 32750.000
838.514, 33432.000
839.791, 33074.000
841.068, 33176.000
842.345, 33051.000
843.621, 33318.000
844.898, 33147.000
846.174, 33000.000
847.450, 33399.000
848.726, 33178.000
850.001, 32975.000
851.277, 33084.000
852.552, 33433.000
853.827, 33474.000
855.102, 33208.000
856.376, 32996.000
857.651, 33436.000
858.925, 33713.000
860.199, 33344.000
861.473, 33560.000
862.746, 33405.000
864.020, 33588.000
865.293, 33293.000
866.566, 33710.000
867.839, 33475.000
869.112, 33577.000
870.384, 33504.000
871.656, 33769.000
872.928, 33553.000
874.200, 33878.000
875.472, 33898.000
876.744, 33787.000
878.015, 34080.000
879.286, 33592.000
880.557, 34121.000
881.828, 33948.000
883.098, 34027.000
884.369, 33737.000
885.639, 33974.000
886.909, 34064.000
888.178, 33997.000
889.448, 33984.000
890.717, 34094.355
891.987, 34129.000
893.256, 34384.000
894.524, 34320.000
895.793, 34641.000
897.061, 34192.000
898.330, 34292.000
899.598, 34488.000
900.865, 34868.000
902.133, 34667.000
903.401, 34629.000
904.668, 34760.000
905.935, 34886.000
907.202, 34963.000
908.468, 34951.000
909.735, 35118.000
911.001, 35156.398
912.267, 34923.000
913.533, 35254.000
914.799, 35318.000
916.064, 35226.000
917.330, 35672.000
918.595, 35196.000
919.860, 35200.000
921.124, 35705.000
922.389, 35200.000
923.653, 35581.000
924.918, 35174.000
926.182, 35392.000
927.445, 35660.000
928.709, 35058.000
929.972, 35566.000
931.236, 35216.000
932.499, 35321.000
933.761, 35580.000
935.024, 35144.000
936.286, 35052.000
937.549, 35562.000
938.811, 35242.000
940.073, 35680.000
941.334, 35393.000
942.596, 35364.000
943.857, 35718.000
945.118, 35854.000
946.379, 35971.156
947.640, 35693.000
948.900, 36138.000
950.161, 36034.000
951.421, 35880.000
952.681, 36032.000
953.940, 35925.000
955.200, 35988.000
956.459, 36008.000
957.719, 36228.000
958.978, 36267.000
960.236, 36251.000
961.495, 36241.000
962.753, 36264.000
964.012, 36260.000
965.270, 36249.941
966.527, 36255.227
967.785, 36218.000
969.043, 36236.000
970.300, 36211.000
971.557, 36179.000
972.814, 36562.000
974.071, 35994.000
975.327, 36520.000
976.583, 36208.000
977.840, 36658.000
979.095, 36649.000
980.351, 36136.000
981.607, 36459.000
982.862, 36697.000
984.117, 36466.000
985.372, 36974.000
986.627, 36441.000
987.882, 36763.000
989.136, 36868.000
990.390, 36337.000
991.644, 37155.000
992.898, 36752.000
994.152, 36974.000
995.405, 36755.000
996.659, 36882.000
997.912, 36955.000
999.165, 36746.000
1000.417, 37146.000
1001.670, 36720.000
1002.922, 37289.000
1004.174, 36915.000
1005.426, 37221.000
1006.678, 36940.000
1007.930, 37060.000
1009.181, 37474.000
1010.432, 37164.000
1011.683, 37672.000
1012.934, 37221.000
1014.185, 37421.000
1015.435, 37521.000
1016.685, 37406.000
1017.935, 37264.000
1019.185, 37706.000
1020.435, 37676.000
1021.684, 37200.000
1022.934, 37497.000
1024.183, 37856.000
1025.432, 37681.000
1026.680, 37862.000
1027.929, 37532.000
1029.177, 37850.000
1030.425, 37673.000
1031.673, 37976.000
1032.921, 37824.000
1034.169, 37506.000
1035.416, 37478.000
1036.663, 37433.641
1037.911, 37598.000
1039.157, 37496.000
1040.404, 37742.000
1041.650, 37743.000
1042.897, 38129.000
1044.143, 37795.000
1045.389, 37848.000
1046.634, 38211.000
1047.880, 37900.000
1049.125, 37899.000
1050.371, 38020.000
1051.615, 38412.000
1052.860, 37984.000
1054.105, 38336.000
1055.349, 38465.000
1056.593, 38214.000
1057.837, 38356.000
1059.081, 38723.000
1060.325, 38362.000
1061.568, 38464.000
1062.812, 38662.000
1064.055, 38510.000
1065.298, 38505.000
1066.540, 38667.000
1067.783, 38796.000
1069.025, 38416.000
1070.267, 39130.000
1071.509, 38472.000
1072.751, 38708.000
1073.993, 39364.000
1075.234, 38876.000
1076.475, 39109.000
1077.716, 39337.000
1078.957, 38994.000
1080.198, 38961.000
1081.438, 39651.000
1082.679, 39209.000
1083.919, 39371.000
1085.159, 39237.000
1086.398, 39514.000
1087.638, 39280.000
1088.877, 39390.000
1090.116, 39404.000
1091.355, 39398.000
1092.594, 39560.000
1093.833, 39490.000
1095.071, 39496.000
1096.309, 39643.000
1097.547, 39754.000
1098.785, 39472.000
1100.023, 39901.000
1101.260, 39740.000
1102.498, 40204.000
1103.735, 39579.000
1104.972, 40035.000
1106.208, 39824.000
1107.445, 40108.000
1108.681, 39794.000
1109.918, 40304.000
1111.154, 40064.000
1112.389, 40362.000
1113.625, 40074.000
1114.860, 40097.000
1116.096, 40281.000
1117.331, 40305.000
1118.566, 40224.000
1119.800, 40232.000
1121.035, 40267.000
1122.269, 40208.312
1123.503, 40312.000
1124.737, 40146.000
1125.971, 40046.000
1127.205, 39993.000
1128.438, 39584.000
1129.671, 40120.000
1130.904, 39371.000
1132.137, 39697.000
1133.370, 39691.000
1134.602, 39598.000
1135.834, 39308.000
1137.066, 39308.000
1138.298, 39482.000
1139.530, 38952.000
1140.762, 39488.000
1141.993, 39178.000
1143.224, 39034.000
1144.455, 39040.000
1145.686, 38981.000
1146.917, 39085.000
1148.147, 39081.980
1149.377, 39248.000
1150.607, 39133.000
1151.837, 39106.000
1153.067, 39052.000
1154.296, 38996.000
1155.526, 39108.598
1156.755, 39102.000
1157.984, 39268.000
1159.213, 39128.000
1160.441, 38996.000
1161.670, 39285.000
1162.898, 39428.000
1164.126, 38928.000
1165.354, 39374.000
1166.581, 39265.000
1167.809, 39246.000
1169.036, 39060.000
1170.263, 39542.000
1171.490, 39457.000
1172.717, 39560.000
1173.943, 39406.000
1175.170, 39196.000
1176.396, 39600.000
1177.622, 39596.000
1178.848, 39672.000
1180.073, 39318.000
1181.299, 39568.000
1182.524, 39670.000
1183.749, 39550.000
1184.974, 39883.000
1186.199, 39834.000
1187.423, 39747.000
1188.648, 39888.000
1189.872, 39797.410
1191.096, 39926.000
1192.320, 39845.000
1193.543, 39949.000
1194.767, 40168.000
1195.990, 40014.000
1197.213, 39952.000
1198.436, 39962.000
1199.659, 40224.000
1200.881, 40185.000
1202.104, 40394.000
1203.326, 40280.000
1204.548, 40355.926
1205.770, 39964.000
1206.991, 40498.000
1208.213, 40317.000
1209.434, 40580.000
1210.655, 40101.000
1211.876, 40235.000
1213.096, 40504.000
1214.317, 40556.000
1215.537, 40654.000
1216.757, 40577.000
1217.977, 40661.000
1219.197, 40457.000
1220.417, 40753.000
1221.636, 40478.000
1222.855, 40665.000
1224.074, 40828.000
1225.293, 40616.000
1226.512, 40773.000
1227.731, 41052.000
1228.949, 41032.000
1230.167, 40768.000
1231.385, 41002.000
1232.603, 41245.000
1233.820, 40921.000
1235.038, 41134.000
1236.255, 41197.000
1237.472, 41136.000
1238.689, 41187.000
1239.906, 41328.000
1241.122, 41376.000
1242.338, 41354.000
1243.555, 41513.000
1244.771, 41438.309
1245.986, 41321.000
1247.202, 41397.000
1248.417, 41496.000
1249.633, 41560.000
1250.848, 41517.293
1252.063, 41747.000
1253.277, 41460.000
1254.492, 41488.000
1255.706, 41627.000
1256.920, 41644.000
1258.134, 41598.000
1259.348, 41460.000
1260.562, 41838.000
1261.775, 41785.000
1262.988, 41704.000
1264.201, 41987.000
1265.414, 41760.000
1266.627, 41862.000
1267.839, 41928.000
1269.052, 41920.000
1270.264, 41913.000
1271.476, 42124.000
1272.688, 41504.000
1273.899, 42096.000
1275.111, 41858.000
1276.322, 42162.000
1277.533, 41892.000
1278.744, 42286.000
1279.955, 42208.000
1281.165, 42492.000
1282.376, 42157.000
1283.586, 42272.000
1284.796, 42570.000
1286.006, 42168.000
1287.215, 42340.000
1288.425, 42557.000
1289.634, 42310.000
1290.843, 42528.000
1292.052, 42312.000
1293.261, 42408.000
1294.469, 42528.000
1295.678, 42408.000
1296.886, 42466.000
1298.094, 42738.000
1299.302, 42438.000
1300.509, 42772.000
1301.717, 42996.000
1302.924, 42958.000
1304.131, 43029.000
1305.338, 42743.000
1306.545, 42966.000
1307.752, 42846.000
1308.958, 42962.000
1310.164, 43361.000
1311.370, 43194.000
1312.576, 43262.000
1313.782, 43205.000
1314.987, 43279.000
1316.193, 43294.090
1317.398, 43380.000
1318.603, 43328.000
1319.807, 43504.000
1321.012, 43473.000
1322.216, 43509.000
1323.421, 43570.000
1324.625, 43161.000
1325.829, 43685.000
1327.032, 43424.000
1328.236, 43944.000
1329.439, 43688.000
1330.642, 43456.000
1331.845, 43714.000
1333.048, 43901.000
1334.251, 44253.000
1335.453, 43792.000
1336.656, 44040.000
1337.858, 44004.000
1339.060, 44026.000
1340.261, 44233.000
1341.463, 44140.000
1342.664, 44436.000
1343.866, 44481.000
1345.067, 44299.000
1346.267, 44396.000
1347.468, 44576.000
1348.669, 44400.000
1349.869, 44917.000
1351.069, 44732.000
1352.269, 44777.000
1353.469, 45040.000
1354.668, 44848.000
1355.868, 44851.000
1357.067, 45182.000
1358.266, 44749.000
1359.465, 45128.000
1360.664, 45200.000
1361.862, 45067.000
1363.061, 45454.000
1364.259, 45016.000
1365.457, 45160.000
1366.655, 45659.000
1367.852, 45327.000
1369.050, 45632.000
1370.247, 45696.000
1371.444, 45596.000
1372.641, 45321.000
1373.838, 45720.000
1375.035, 45416.000
1376.231, 45628.000
1377.427, 45878.000
1378.623, 45800.000
1379.819, 45948.258
1381.015, 45786.000
1382.211, 45980.000
1383.406, 46058.000
1384.601, 46032.000
1385.796, 46062.000
1386.991, 46412.000
1388.185, 46171.000
1389.380, 46117.000
1390.574, 46494.000
1391.768, 46308.000
1392.962, 46577.000
1394.156, 46233.000
1395.350, 46384.000
1396.543, 46800.000
1397.736, 46611.000
1398.929, 46614.000
1400.122, 46718.000
1401.315, 46647.445
1402.507, 46617.000
1403.700, 46710.000
1404.892, 46860.000
1406.084, 46944.000
1407.276, 46516.000
1408.467, 47136.000
1409.659, 46728.000
1410.850, 46980.000
1412.041, 47250.000
1413.232, 47058.000
1414.423, 46952.000
1415.614, 47091.000
1416.804, 47187.000
1417.994, 47209.855
1419.184, 47813.000
1420.374, 47210.000
1421.564, 47581.000
1422.753, 47290.000
1423.943, 47556.000
1425.132, 47475.000
1426.321, 47664.000
1427.510, 47661.000
1428.698, 47650.000
1429.887, 47832.000
1431.075, 47953.000
1432.263, 47804.000
1433.451, 47937.000
1434.639, 47898.000
1435.827, 48123.000
1437.014, 47993.000
1438.201, 48103.984
1439.388, 48456.000
1440.575, 48278.000
1441.762, 48332.000
1442.949, 48564.000
1444.135, 48233.000
1445.321, 48530.000
1446.507, 48704.000
1447.693, 48267.000
1448.879, 48475.000
1450.064, 48631.000
1451.250, 48816.000
1452.435, 48421.000
1453.620, 49702.000
1454.805, 49158.000
1455.989, 48900.000
1457.174, 49281.000
1458.358, 48828.000
1459.542, 49176.000
1460.726, 49170.000
1461.910, 49197.000
1463.093, 49478.000
1464.277, 49005.000
1465.460, 49257.000
1466.643, 49316.000
1467.826, 49105.000
1469.009, 49898.000
1470.191, 49109.000
1471.373, 49634.000
1472.556, 49742.000
1473.738, 49776.000
1474.919, 49887.852
1476.101, 49907.000
1477.283, 49776.000
1478.464, 49484.000
1479.645, 49400.000
1480.826, 49881.000
1482.007, 49906.000
1483.187, 50220.000
1484.368, 49780.000
1485.548, 49866.000
1486.728, 49896.000
1487.908, 49989.000
1489.088, 49822.000
1490.268, 49921.270
1491.447, 49954.000
1492.626, 50108.000
1493.805, 50016.000
1494.984, 50393.000
1496.163, 50082.000
1497.341, 50211.000
1498.520, 50377.000
1499.698, 49888.000
1500.876, 50577.000
1502.054, 49768.000
1503.232, 50105.000
1504.409, 50200.000
1505.586, 50008.000
1506.763, 50482.000
1507.940, 50368.000
1509.117, 50365.000
1510.294, 50241.000
1511.470, 50284.000
1512.647, 50216.000
1513.823, 50764.000
1514.999, 50781.000
1516.174, 50757.000
1517.350, 50560.000
1518.526, 50992.000
1519.701, 50880.000
##END=



