##NAMES=Aegirine
##RRUFFID=R061093
##IDEAL CHEMISTRY=NaFe^3+^Si_2_O_6_
##LOCALITY=Lacotal Breccia, Alto Chapere, Cochabamba, Bolivia
##OWNER=Michael Scott
##SOURCE=Michael Scott
##DESCRIPTION=Aggregates of light green prismatic crystals associated with dark rutile
##STATUS=The identification of this mineral is confirmed by single-crystal X-ray diffraction and chemical analysis.
##URL=rruff.info/R061093
##MEASURED CHEMISTRY=Na_1.00_(Fe^3+^_0.97_Al_0.02_Cr_0.01_)_Σ=1_Si_2.00_O_6_ ; = light phase, while the darker phase is (Na_0.96_Ca_0.02_[box]_0.02_)_Σ=1_(Fe^3+^_0.89_Al_0.11_)_Σ=1_Si_2.00_O_6_
123.0111, 2915.046
123.4933, 3089.894
123.9754, 3279.919
124.4575, 3470.772
124.9396, 3644.552
125.4217, 3799.128
125.9038, 3948.845
126.3860, 4085.108
126.8681, 4171.108
127.3502, 4216.019
127.8323, 4241.898
128.3144, 4256.040
128.7965, 4271.221
129.2787, 4286.613
129.7608, 4306.530
130.2429, 4334.985
130.7250, 4371.479
131.2071, 4418.859
131.6892, 4484.101
132.1714, 4563.898
132.6535, 4640.332
133.1356, 4720.550
133.6177, 4789.525
134.0998, 4800.511
134.5819, 4750.909
135.0640, 4664.181
135.5462, 4551.975
136.0283, 4411.238
136.5104, 4275.047
136.9925, 4149.037
137.4746, 4032.092
137.9567, 3925.738
138.4389, 3826.092
138.9210, 3739.802
139.4031, 3680.459
139.8852, 3654.311
140.3673, 3633.370
140.8494, 3607.215
141.3316, 3572.937
141.8137, 3545.725
142.2958, 3526.762
142.7779, 3514.261
143.2600, 3502.913
143.7421, 3491.999
144.2243, 3483.937
144.7064, 3479.486
145.1885, 3475.284
145.6706, 3481.381
146.1527, 3505.825
146.6348, 3545.133
147.1170, 3565.054
147.5991, 3544.634
148.0812, 3520.204
148.5633, 3518.568
149.0454, 3553.099
149.5275, 3594.128
150.0097, 3638.439
150.4918, 3686.491
150.9739, 3733.658
151.4560, 3777.456
151.9381, 3820.425
152.4202, 3865.984
152.9024, 3915.357
153.3845, 3965.484
153.8666, 4017.310
154.3487, 4073.331
154.8308, 4122.453
155.3129, 4153.822
155.7950, 4177.785
156.2772, 4213.976
156.7593, 4270.705
157.2414, 4337.371
157.7235, 4409.632
158.2056, 4488.477
158.6877, 4569.172
159.1699, 4660.893
159.6520, 4756.961
160.1341, 4829.592
160.6162, 4877.679
161.0983, 4895.381
161.5804, 4878.326
162.0626, 4811.931
162.5447, 4723.572
163.0268, 4610.473
163.5089, 4474.870
163.9910, 4357.065
164.4731, 4274.939
164.9553, 4220.941
165.4374, 4186.290
165.9195, 4175.126
166.4016, 4176.750
166.8837, 4180.990
167.3658, 4185.234
167.8480, 4207.138
168.3301, 4256.735
168.8122, 4331.638
169.2943, 4427.532
169.7764, 4541.716
170.2585, 4676.351
170.7407, 4835.929
171.2228, 5025.702
171.7049, 5228.146
172.1870, 5437.530
172.6691, 5650.774
173.1512, 5853.188
173.6334, 6028.673
174.1155, 6192.644
174.5976, 6363.874
175.0797, 6543.349
175.5618, 6734.589
176.0439, 6930.975
176.5260, 7136.761
177.0082, 7375.638
177.4903, 7659.932
177.9724, 7994.843
178.4545, 8382.134
178.9366, 8850.254
179.4187, 9361.576
179.9009, 9880.961
180.3830, 10414.41
180.8651, 10878.93
181.3472, 11183.51
181.8293, 11356.30
182.3114, 11488.90
182.7936, 11563.00
183.2757, 11627.39
183.7578, 11816.36
184.2399, 12138.68
184.7220, 12524.54
185.2041, 12874.68
185.6863, 13202.20
186.1684, 13578.91
186.6505, 14064.26
187.1326, 14631.52
187.6147, 15196.30
188.0968, 15754.14
188.5790, 16320.12
189.0611, 16946.15
189.5432, 17628.16
190.0253, 18294.68
190.5074, 18966.54
190.9895, 19614.86
191.4717, 20101.51
191.9538, 20454.27
192.4359, 20595.59
192.9180, 20333.45
193.4001, 19652.12
193.8822, 18727.64
194.3644, 17600.18
194.8465, 16275.42
195.3286, 15020.38
195.8107, 13862.13
196.2928, 12808.09
196.7749, 11891.14
197.2570, 11119.63
197.7392, 10452.87
198.2213, 9872.593
198.7034, 9378.059
199.1855, 8950.524
199.6676, 8581.510
200.1497, 8272.193
200.6319, 8037.529
201.1140, 7884.631
201.5961, 7787.464
202.0782, 7718.454
202.5603, 7674.361
203.0424, 7678.106
203.5246, 7749.768
204.0067, 7888.530
204.4888, 8004.362
204.9709, 8088.611
205.4530, 8164.145
205.9352, 8263.602
206.4173, 8391.652
206.8994, 8527.772
207.3815, 8662.603
207.8636, 8796.979
208.3457, 8932.254
208.8279, 9063.028
209.3100, 9200.404
209.7921, 9370.092
210.2742, 9585.262
210.7563, 9799.336
211.2384, 9997.652
211.7206, 10193.86
212.2027, 10333.07
212.6848, 10431.22
213.1669, 10463.08
213.6490, 10363.59
214.1311, 10118.59
214.6133, 9772.957
215.0954, 9325.487
215.5775, 8744.127
216.0596, 8191.131
216.5417, 7664.709
217.0238, 7176.275
217.5059, 6751.167
217.9881, 6397.698
218.4702, 6092.807
218.9523, 5819.337
219.4344, 5578.880
219.9165, 5372.316
220.3986, 5202.841
220.8808, 5068.203
221.3629, 4945.694
221.8450, 4835.341
222.3271, 4736.982
222.8092, 4649.646
223.2913, 4575.866
223.7735, 4508.424
224.2556, 4445.572
224.7377, 4387.083
225.2198, 4340.632
225.7019, 4311.513
226.1840, 4287.523
226.6662, 4256.969
227.1483, 4214.060
227.6304, 4176.330
228.1125, 4147.797
228.5946, 4128.964
229.0767, 4105.964
229.5589, 4074.580
230.0410, 4043.422
230.5231, 4022.081
231.0052, 4018.223
231.4873, 4010.420
231.9694, 3991.756
232.4516, 3960.378
232.9337, 3938.375
233.4158, 3928.158
233.8979, 3925.448
234.3800, 3926.209
234.8621, 3934.786
235.3443, 3939.321
235.8264, 3934.660
236.3085, 3917.536
236.7906, 3910.602
237.2727, 3920.242
237.7548, 3935.626
238.2369, 3940.815
238.7191, 3928.974
239.2012, 3917.651
239.6833, 3911.494
240.1654, 3910.427
240.6475, 3914.933
241.1296, 3928.802
241.6118, 3946.002
242.0939, 3955.822
242.5760, 3952.767
243.0581, 3951.001
243.5402, 3954.651
244.0223, 3963.194
244.5045, 3980.072
244.9866, 4013.535
245.4687, 4051.532
245.9508, 4067.873
246.4329, 4045.305
246.9150, 4028.294
247.3972, 4037.293
247.8793, 4089.473
248.3614, 4119.755
248.8435, 4114.750
249.3256, 4092.605
249.8077, 4097.042
250.2899, 4141.123
250.7720, 4190.906
251.2541, 4231.195
251.7362, 4253.881
252.2183, 4286.345
252.7004, 4332.396
253.1826, 4386.744
253.6647, 4434.933
254.1468, 4473.952
254.6289, 4511.458
255.1110, 4550.883
255.5931, 4591.963
256.0753, 4636.591
256.5574, 4688.249
257.0395, 4743.155
257.5216, 4786.873
258.0037, 4810.496
258.4858, 4839.189
258.9680, 4886.796
259.4501, 4960.701
259.9322, 5034.686
260.4143, 5109.207
260.8964, 5183.007
261.3785, 5247.412
261.8607, 5296.467
262.3428, 5348.880
262.8249, 5419.918
263.3070, 5520.527
263.7891, 5603.118
264.2712, 5663.825
264.7534, 5704.305
265.2355, 5723.226
265.7176, 5712.767
266.1997, 5698.171
266.6818, 5692.433
267.1639, 5695.051
267.6461, 5709.743
268.1282, 5740.478
268.6103, 5781.983
269.0924, 5815.300
269.5745, 5834.870
270.0566, 5859.005
270.5387, 5901.240
271.0208, 5964.924
271.5030, 6028.989
271.9851, 6092.013
272.4672, 6153.739
272.9493, 6214.324
273.4314, 6274.613
273.9135, 6330.502
274.3957, 6381.282
274.8778, 6428.591
275.3599, 6458.144
275.8420, 6465.730
276.3241, 6456.389
276.8062, 6446.682
277.2884, 6438.791
277.7705, 6422.124
278.2526, 6385.223
278.7347, 6326.540
279.2168, 6274.839
279.6989, 6235.470
280.1811, 6203.122
280.6632, 6158.284
281.1453, 6098.075
281.6274, 6041.967
282.1095, 6007.162
282.5916, 5993.325
283.0738, 5971.623
283.5559, 5933.931
284.0380, 5890.261
284.5201, 5868.000
285.0022, 5868.188
285.4843, 5874.368
285.9665, 5870.677
286.4486, 5859.420
286.9307, 5868.808
287.4128, 5908.969
287.8949, 5963.578
288.3770, 5993.388
288.8592, 5998.527
289.3413, 6006.638
289.8234, 6044.481
290.3055, 6105.220
290.7876, 6148.401
291.2697, 6164.046
291.7519, 6168.047
292.2340, 6193.013
292.7161, 6237.459
293.1982, 6275.693
293.6803, 6289.902
294.1624, 6284.280
294.6446, 6273.313
295.1267, 6260.530
295.6088, 6239.421
296.0909, 6193.794
296.5730, 6127.457
297.0551, 6061.649
297.5373, 6007.873
298.0194, 5965.063
298.5015, 5931.020
298.9836, 5904.918
299.4657, 5889.571
299.9478, 5895.319
300.4300, 5917.662
300.9121, 5938.734
301.3942, 5933.381
301.8763, 5923.545
302.3584, 5948.154
302.8405, 6019.932
303.3227, 6103.431
303.8048, 6162.938
304.2869, 6204.662
304.7690, 6250.927
305.2511, 6319.632
305.7332, 6396.354
306.2154, 6464.511
306.6975, 6519.307
307.1796, 6573.396
307.6617, 6641.260
308.1438, 6715.349
308.6259, 6781.672
309.1081, 6834.625
309.5901, 6874.769
310.0723, 6902.833
310.5544, 6918.448
311.0365, 6922.617
311.5186, 6915.030
312.0007, 6896.445
312.4828, 6868.608
312.9650, 6824.249
313.4471, 6776.432
313.9292, 6732.869
314.4113, 6694.149
314.8934, 6660.884
315.3755, 6628.994
315.8577, 6603.457
316.3398, 6592.253
316.8219, 6602.867
317.3040, 6624.201
317.7861, 6648.090
318.2682, 6671.960
318.7504, 6714.779
319.2325, 6792.192
319.7146, 6889.451
320.1967, 6988.447
320.6788, 7075.497
321.1609, 7172.851
321.6431, 7283.915
322.1252, 7407.988
322.6073, 7557.675
323.0894, 7746.956
323.5715, 7957.668
324.0536, 8173.866
324.5358, 8357.986
325.0179, 8580.687
325.5000, 8868.180
325.9821, 9220.554
326.4642, 9570.984
326.9464, 9898.618
327.4285, 10232.39
327.9106, 10595.23
328.3927, 10963.37
328.8748, 11385.63
329.3569, 11877.64
329.8391, 12436.29
330.3212, 12992.32
330.8033, 13535.92
331.2854, 14088.82
331.7675, 14659.38
332.2496, 15260.52
332.7318, 15865.76
333.2139, 16475.93
333.6960, 17089.11
334.1781, 17723.25
334.6602, 18387.20
335.1423, 19061.40
335.6245, 19749.57
336.1066, 20479.06
336.5887, 21150.08
337.0708, 21754.94
337.5529, 22310.20
338.0350, 22867.78
338.5172, 23461.05
338.9993, 23971.24
339.4814, 24339.87
339.9635, 24558.06
340.4456, 24688.95
340.9277, 24744.24
341.4099, 24701.47
341.8920, 24507.23
342.3741, 24156.46
342.8562, 23711.76
343.3383, 23186.28
343.8204, 22587.48
344.3026, 21962.96
344.7847, 21320.75
345.2668, 20666.97
345.7489, 20038.95
346.2310, 19427.11
346.7131, 18782.44
347.1953, 18057.18
347.6774, 17278.00
348.1595, 16546.67
348.6416, 15874.49
349.1237, 15233.15
349.6058, 14595.15
350.0880, 13974.77
350.5700, 13402.88
351.0522, 12885.65
351.5343, 12432.95
352.0164, 12063.60
352.4985, 11776.99
352.9806, 11554.66
353.4627, 11392.86
353.9449, 11283.35
354.4270, 11212.77
354.9091, 11178.21
355.3912, 11178.95
355.8733, 11215.67
356.3554, 11287.52
356.8376, 11392.55
357.3197, 11545.54
357.8018, 11723.40
358.2839, 11901.43
358.7660, 12059.14
359.2481, 12237.31
359.7303, 12463.50
360.2124, 12726.63
360.6945, 13005.46
361.1766, 13301.32
361.6587, 13602.27
362.1408, 13897.99
362.6230, 14188.40
363.1051, 14476.76
363.5872, 14768.95
364.0693, 15061.46
364.5514, 15342.24
365.0335, 15626.07
365.5157, 15886.25
365.9978, 16122.90
366.4799, 16355.27
366.9620, 16501.62
367.4441, 16541.67
367.9262, 16492.73
368.4084, 16376.40
368.8905, 16183.13
369.3726, 15930.84
369.8547, 15609.22
370.3368, 15206.97
370.8189, 14823.95
371.3011, 14458.77
371.7832, 14114.35
372.2653, 13782.39
372.7474, 13440.63
373.2295, 13166.08
373.7116, 12981.51
374.1938, 12879.40
374.6759, 12807.20
375.1580, 12767.24
375.6401, 12755.14
376.1222, 12767.02
376.6043, 12801.42
377.0865, 12870.89
377.5686, 12979.98
378.0507, 13122.57
378.5328, 13281.76
379.0149, 13459.11
379.4970, 13647.28
379.9792, 13841.69
380.4613, 14044.26
380.9434, 14248.92
381.4255, 14460.13
381.9076, 14668.19
382.3897, 14863.08
382.8719, 15045.39
383.3540, 15208.04
383.8361, 15365.89
384.3182, 15499.88
384.8003, 15573.09
385.2824, 15584.55
385.7646, 15532.41
386.2467, 15402.70
386.7288, 15207.53
387.2109, 14974.23
387.6930, 14716.74
388.1751, 14422.07
388.6573, 14057.30
389.1394, 13625.30
389.6215, 13191.23
390.1036, 12794.19
390.5857, 12419.54
391.0678, 12046.72
391.5499, 11670.80
392.0320, 11298.09
392.5142, 10933.39
392.9963, 10577.77
393.4784, 10232.04
393.9605, 9892.653
394.4426, 9569.633
394.9247, 9270.625
395.4069, 9005.703
395.8890, 8745.182
396.3711, 8475.728
396.8532, 8208.782
397.3353, 7967.180
397.8174, 7771.077
398.2996, 7584.555
398.7817, 7398.589
399.2638, 7210.855
399.7459, 7030.408
400.2280, 6850.570
400.7101, 6682.198
401.1923, 6535.101
401.6744, 6421.561
402.1565, 6310.442
402.6386, 6195.503
403.1207, 6077.427
403.6028, 5965.678
404.0850, 5858.364
404.5671, 5760.546
405.0492, 5675.461
405.5313, 5604.020
406.0134, 5540.860
406.4955, 5487.998
406.9777, 5441.535
407.4598, 5392.784
407.9419, 5341.502
408.4240, 5288.021
408.9061, 5227.048
409.3882, 5161.612
409.8704, 5115.202
410.3525, 5092.508
410.8346, 5076.950
411.3167, 5044.021
411.7988, 4997.225
412.2809, 4955.521
412.7631, 4926.806
413.2452, 4907.649
413.7273, 4897.996
414.2094, 4897.713
414.6915, 4890.333
415.1736, 4855.370
415.6558, 4805.966
416.1379, 4763.651
416.6200, 4738.852
417.1021, 4718.136
417.5842, 4691.325
418.0663, 4659.923
418.5485, 4631.211
419.0306, 4603.094
419.5127, 4582.237
419.9948, 4576.238
420.4769, 4600.065
420.9590, 4610.365
421.4412, 4578.234
421.9233, 4526.223
422.4054, 4495.447
422.8875, 4517.483
423.3696, 4540.497
423.8517, 4547.384
424.3339, 4533.744
424.8160, 4519.158
425.2981, 4500.319
425.7802, 4482.951
426.2623, 4472.945
426.7444, 4477.278
427.2266, 4476.654
427.7087, 4463.562
428.1908, 4441.743
428.6729, 4439.498
429.1550, 4466.619
429.6371, 4492.280
430.1193, 4491.672
430.6014, 4459.879
431.0835, 4442.392
431.5656, 4445.337
432.0477, 4459.930
432.5298, 4471.026
433.0119, 4478.540
433.4940, 4483.341
433.9762, 4483.563
434.4583, 4481.015
434.9404, 4483.934
435.4225, 4493.060
435.9046, 4501.476
436.3867, 4500.359
436.8689, 4492.806
437.3510, 4486.263
437.8331, 4481.525
438.3152, 4480.605
438.7973, 4490.795
439.2794, 4509.382
439.7616, 4520.616
440.2437, 4503.274
440.7258, 4479.817
441.2079, 4473.253
441.6900, 4496.917
442.1721, 4518.068
442.6543, 4517.610
443.1364, 4504.435
443.6185, 4495.417
444.1006, 4499.920
444.5827, 4506.055
445.0648, 4509.653
445.5470, 4510.271
446.0291, 4509.503
446.5112, 4506.884
446.9933, 4503.317
447.4754, 4499.080
447.9576, 4486.137
448.4397, 4485.081
448.9218, 4506.293
449.4039, 4543.224
449.8860, 4556.200
450.3681, 4532.467
450.8503, 4508.071
451.3324, 4504.933
451.8145, 4527.663
452.2966, 4542.582
452.7787, 4544.631
453.2608, 4545.513
453.7430, 4570.557
454.2251, 4620.085
454.7072, 4658.144
455.1893, 4659.237
455.6714, 4639.117
456.1535, 4655.286
456.6357, 4708.678
457.1178, 4767.332
457.5999, 4809.770
458.0820, 4835.445
458.5641, 4837.940
459.0462, 4800.478
459.5284, 4763.844
460.0105, 4779.768
460.4926, 4833.014
460.9747, 4876.944
461.4568, 4877.447
461.9389, 4865.346
462.4211, 4864.873
462.9032, 4881.296
463.3853, 4895.485
463.8674, 4899.220
464.3495, 4896.395
464.8316, 4891.648
465.3138, 4888.186
465.7959, 4880.631
466.2780, 4865.416
466.7601, 4843.167
467.2422, 4824.683
467.7243, 4807.262
468.2065, 4796.412
468.6886, 4796.643
469.1707, 4819.328
469.6528, 4827.522
470.1349, 4813.821
470.6170, 4790.505
471.0992, 4781.144
471.5813, 4788.250
472.0634, 4800.208
472.5455, 4815.061
473.0276, 4831.999
473.5097, 4841.271
473.9918, 4841.017
474.4739, 4844.032
474.9561, 4866.915
475.4382, 4905.361
475.9203, 4937.405
476.4024, 4956.159
476.8845, 4970.555
477.3666, 4990.370
477.8488, 5015.958
478.3309, 5048.792
478.8130, 5092.953
479.2951, 5143.205
479.7772, 5192.828
480.2593, 5240.732
480.7415, 5295.113
481.2236, 5359.810
481.7057, 5433.930
482.1878, 5516.418
482.6699, 5604.585
483.1520, 5703.827
483.6342, 5819.425
484.1163, 5949.370
484.5984, 6079.173
485.0805, 6205.177
485.5626, 6331.549
486.0447, 6460.177
486.5269, 6585.504
487.0090, 6725.992
487.4911, 6884.107
487.9732, 7054.086
488.4553, 7231.418
488.9374, 7416.988
489.4196, 7602.081
489.9017, 7783.572
490.3838, 7961.653
490.8659, 8150.104
491.3480, 8349.797
491.8301, 8549.509
492.3123, 8736.269
492.7944, 8913.594
493.2765, 9114.101
493.7586, 9344.848
494.2407, 9585.976
494.7228, 9813.537
495.2050, 10027.53
495.6871, 10227.18
496.1692, 10437.52
496.6513, 10619.42
497.1334, 10736.40
497.6155, 10787.49
498.0977, 10792.28
498.5798, 10767.44
499.0619, 10698.15
499.5440, 10570.16
500.0261, 10361.50
500.5082, 10122.21
500.9904, 9856.979
501.4725, 9573.295
501.9546, 9283.119
502.4367, 8972.760
502.9188, 8673.396
503.4009, 8393.528
503.8831, 8133.777
504.3652, 7885.970
504.8473, 7645.600
505.3294, 7422.225
505.8115, 7228.299
506.2936, 7067.533
506.7758, 6920.807
507.2579, 6786.626
507.7400, 6664.337
508.2221, 6552.204
508.7042, 6450.295
509.1863, 6359.936
509.6685, 6282.088
510.1506, 6216.603
510.6327, 6162.793
511.1148, 6120.840
511.5969, 6090.602
512.0790, 6080.115
512.5612, 6080.050
513.0433, 6072.857
513.5254, 6046.068
514.0075, 6021.211
514.4896, 6013.838
514.9717, 6021.119
515.4539, 6034.808
515.9360, 6051.870
516.4181, 6073.813
516.9002, 6099.703
517.3823, 6127.441
517.8644, 6168.076
518.3466, 6225.421
518.8287, 6295.537
519.3108, 6374.340
519.7929, 6470.020
520.2750, 6560.954
520.7571, 6639.179
521.2393, 6712.062
521.7214, 6806.564
522.2035, 6927.067
522.6856, 7057.282
523.1677, 7184.295
523.6498, 7308.598
524.1320, 7461.996
524.6141, 7645.880
525.0962, 7855.490
525.5783, 8099.108
526.0604, 8368.904
526.5425, 8631.887
527.0247, 8860.076
527.5068, 9099.327
527.9889, 9413.240
528.4710, 9784.704
528.9531, 10168.45
529.4352, 10539.09
529.9174, 10907.41
530.3995, 11278.27
530.8816, 11644.31
531.3637, 12032.98
531.8458, 12460.85
532.3279, 12910.36
532.8101, 13359.68
533.2922, 13783.69
533.7743, 14238.00
534.2564, 14745.91
534.7385, 15285.93
535.2206, 15829.77
535.7027, 16352.05
536.1848, 16912.45
536.6669, 17549.49
537.1490, 18261.26
537.6312, 18943.46
538.1133, 19584.70
538.5954, 20216.96
539.0775, 20893.02
539.5596, 21603.31
540.0417, 22235.75
540.5239, 22775.84
541.0060, 23236.26
541.4881, 23664.79
541.9702, 24041.36
542.4523, 24289.17
542.9344, 24390.83
543.4166, 24331.74
543.8987, 24089.43
544.3808, 23663.85
544.8629, 23095.21
545.3450, 22343.85
545.8271, 21493.79
546.3093, 20602.73
546.7914, 19646.62
547.2735, 18730.79
547.7556, 17881.78
548.2377, 17092.44
548.7198, 16347.29
549.2020, 15631.75
549.6841, 14977.53
550.1662, 14389.80
550.6483, 13872.37
551.1304, 13417.44
551.6125, 13035.23
552.0947, 12688.99
552.5768, 12350.60
553.0589, 12020.31
553.5410, 11732.94
554.0231, 11493.11
554.5052, 11288.02
554.9874, 11100.06
555.4695, 10933.17
555.9516, 10807.80
556.4337, 10765.64
556.9158, 10737.29
557.3979, 10630.43
557.8801, 10461.56
558.3622, 10308.21
558.8443, 10222.58
559.3264, 10159.00
559.8085, 10091.02
560.2906, 10018.17
560.7728, 9927.702
561.2549, 9821.576
561.7370, 9693.861
562.2191, 9537.616
562.7012, 9333.485
563.1833, 9126.801
563.6655, 8920.308
564.1476, 8715.123
564.6297, 8518.488
565.1118, 8336.394
565.5939, 8149.956
566.0760, 7944.031
566.5582, 7725.252
567.0403, 7527.580
567.5224, 7353.263
568.0045, 7194.525
568.4866, 7046.660
568.9688, 6910.346
569.4509, 6790.805
569.9330, 6695.494
570.4151, 6605.966
570.8972, 6498.602
571.3793, 6384.938
571.8615, 6290.836
572.3436, 6238.875
572.8257, 6197.639
573.3078, 6150.843
573.7899, 6098.243
574.2720, 6051.092
574.7542, 6010.645
575.2363, 5976.295
575.7184, 5950.077
576.2005, 5941.984
576.6826, 5913.637
577.1647, 5853.855
577.6469, 5784.650
578.1290, 5736.292
578.6111, 5713.080
579.0932, 5685.186
579.5753, 5642.354
580.0574, 5595.855
580.5396, 5581.158
581.0217, 5596.020
581.5038, 5602.544
581.9859, 5571.490
582.4680, 5520.760
582.9501, 5478.326
583.4323, 5444.791
583.9144, 5418.885
584.3965, 5405.216
584.8786, 5395.851
585.3607, 5382.763
585.8428, 5364.685
586.3250, 5341.890
586.8071, 5310.646
587.2892, 5275.578
587.7713, 5244.500
588.2534, 5220.122
588.7355, 5198.082
589.2177, 5178.104
589.6998, 5160.253
590.1819, 5143.235
590.6640, 5127.353
591.1461, 5111.730
591.6282, 5096.375
592.1104, 5081.219
592.5925, 5062.556
593.0746, 5039.225
593.5567, 5017.116
594.0388, 5005.520
594.5209, 5000.595
595.0031, 4991.089
595.4852, 4971.159
595.9673, 4950.888
596.4494, 4942.022
596.9315, 4940.407
597.4136, 4936.168
597.8958, 4921.211
598.3779, 4906.149
598.8600, 4897.791
599.3421, 4896.320
599.8242, 4890.851
600.3063, 4876.865
600.7885, 4860.814
601.2706, 4846.034
601.7527, 4832.217
602.2348, 4819.712
602.7169, 4807.045
603.1990, 4797.841
603.6812, 4799.878
604.1633, 4813.975
604.6454, 4820.345
605.1275, 4812.246
605.6096, 4796.660
606.0917, 4784.481
606.5739, 4775.864
607.0560, 4771.485
607.5381, 4776.580
608.0202, 4783.223
608.5023, 4783.305
608.9844, 4776.655
609.4666, 4765.687
609.9487, 4751.524
610.4308, 4733.761
610.9129, 4710.330
611.3950, 4671.185
611.8771, 4647.529
612.3593, 4658.513
612.8414, 4679.426
613.3235, 4681.629
613.8056, 4655.772
614.2877, 4632.610
614.7698, 4615.385
615.2520, 4604.943
615.7341, 4607.713
616.2162, 4624.643
616.6983, 4639.079
617.1804, 4641.695
617.6625, 4635.504
618.1446, 4628.338
618.6267, 4620.093
619.1088, 4609.564
619.5909, 4586.546
620.0731, 4565.016
620.5552, 4565.804
621.0373, 4601.698
621.5194, 4628.482
622.0015, 4621.259
622.4836, 4596.819
622.9658, 4575.722
623.4479, 4562.380
623.9300, 4551.879
624.4121, 4544.247
624.8942, 4539.015
625.3763, 4533.524
625.8585, 4525.103
626.3406, 4524.308
626.8227, 4540.068
627.3048, 4568.083
627.7869, 4575.688
628.2690, 4561.519
628.7512, 4546.051
629.2333, 4547.378
629.7154, 4558.481
630.1975, 4565.043
630.6796, 4564.855
631.1617, 4563.362
631.6439, 4563.679
632.1260, 4565.712
632.6081, 4569.398
633.0902, 4581.848
633.5723, 4587.843
634.0544, 4581.854
634.5366, 4566.491
635.0187, 4547.638
635.5008, 4518.266
635.9829, 4496.062
636.4650, 4488.344
636.9471, 4492.881
637.4293, 4489.692
637.9114, 4476.283
638.3935, 4465.648
638.8756, 4467.926
639.3577, 4480.429
639.8398, 4491.089
640.3220, 4499.000
640.8041, 4506.886
641.2862, 4517.623
641.7683, 4529.877
642.2504, 4541.560
642.7325, 4552.239
643.2147, 4562.170
643.6968, 4572.243
644.1789, 4581.509
644.6610, 4588.841
645.1431, 4587.662
645.6252, 4591.933
646.1074, 4606.332
646.5895, 4628.646
647.0716, 4649.378
647.5537, 4671.944
648.0358, 4684.977
648.5179, 4678.178
649.0001, 4655.006
649.4822, 4650.267
649.9643, 4664.812
650.4464, 4687.811
650.9285, 4714.262
651.4106, 4741.983
651.8928, 4766.244
652.3749, 4786.789
652.8570, 4802.008
653.3391, 4806.564
653.8212, 4806.360
654.3033, 4808.535
654.7855, 4804.497
655.2676, 4815.446
655.7497, 4850.762
656.2318, 4904.046
656.7139, 4962.071
657.1960, 5036.188
657.6782, 5094.465
658.1603, 5121.831
658.6424, 5126.735
659.1245, 5156.811
659.6066, 5214.785
660.0887, 5274.986
660.5709, 5314.896
661.0530, 5346.654
661.5351, 5406.739
662.0172, 5496.465
662.4993, 5585.101
662.9814, 5638.123
663.4636, 5682.186
663.9457, 5749.752
664.4278, 5857.413
664.9099, 5959.554
665.3920, 6028.437
665.8741, 6088.289
666.3563, 6169.157
666.8384, 6284.460
667.3205, 6402.022
667.8026, 6521.247
668.2847, 6640.331
668.7668, 6753.766
669.2490, 6860.428
669.7311, 6970.120
670.2132, 7084.305
670.6953, 7204.142
671.1774, 7335.396
671.6595, 7475.614
672.1417, 7614.065
672.6238, 7743.113
673.1059, 7865.584
673.5880, 7985.890
674.0701, 8103.450
674.5522, 8210.274
675.0344, 8306.600
675.5165, 8387.230
675.9986, 8447.644
676.4807, 8491.321
676.9628, 8507.811
677.4449, 8503.661
677.9271, 8465.007
678.4092, 8367.872
678.8913, 8202.565
679.3734, 8041.746
679.8555, 7900.429
680.3376, 7761.729
680.8198, 7602.108
681.3019, 7422.009
681.7840, 7229.017
682.2661, 7008.826
682.7482, 6791.521
683.2303, 6598.991
683.7125, 6429.626
684.1946, 6270.447
684.6767, 6118.134
685.1588, 5975.727
685.6409, 5843.013
686.1230, 5721.191
686.6052, 5609.124
687.0873, 5505.248
687.5694, 5413.656
688.0515, 5338.840
688.5336, 5283.476
689.0157, 5220.003
689.4979, 5145.872
689.9800, 5075.910
690.4621, 5028.866
690.9442, 4999.292
691.4263, 4971.302
691.9084, 4942.845
692.3906, 4913.200
692.8727, 4879.952
693.3548, 4845.800
693.8369, 4814.002
694.3190, 4782.674
694.8011, 4758.161
695.2833, 4745.559
695.7654, 4740.836
696.2475, 4735.012
696.7296, 4732.420
697.2117, 4719.096
697.6938, 4684.686
698.1760, 4637.714
698.6581, 4622.556
699.1402, 4640.379
699.6223, 4652.736
700.1044, 4628.627
700.5865, 4586.697
701.0686, 4563.817
701.5507, 4559.569
702.0328, 4558.330
702.5150, 4550.570
702.9971, 4541.096
703.4792, 4534.075
703.9613, 4531.081
704.4434, 4525.965
704.9255, 4509.239
705.4077, 4495.990
705.8898, 4499.587
706.3719, 4531.085
706.8540, 4545.641
707.3361, 4538.146
707.8182, 4520.226
708.3004, 4503.340
708.7825, 4488.584
709.2646, 4487.499
709.7467, 4509.555
710.2288, 4531.724
710.7109, 4522.877
711.1931, 4493.623
711.6752, 4466.386
712.1573, 4451.257
712.6394, 4439.293
713.1215, 4425.278
713.6036, 4410.728
714.0858, 4402.342
714.5679, 4403.498
715.0500, 4406.430
715.5321, 4409.763
716.0142, 4413.306
716.4963, 4414.617
716.9785, 4413.657
717.4606, 4411.442
717.9427, 4405.330
718.4248, 4398.967
718.9069, 4404.711
719.3890, 4422.596
719.8712, 4439.227
720.3533, 4443.941
720.8354, 4442.927
721.3175, 4440.804
721.7996, 4437.013
722.2817, 4437.058
722.7639, 4448.917
723.2460, 4460.626
723.7281, 4461.365
724.2102, 4443.661
724.6923, 4433.906
725.1744, 4435.230
725.6566, 4441.130
726.1387, 4441.911
726.6208, 4438.421
727.1029, 4441.469
727.5850, 4458.747
728.0671, 4471.764
728.5493, 4444.686
729.0314, 4397.265
729.5135, 4370.031
729.9956, 4402.980
730.4777, 4435.071
730.9598, 4431.736
731.4420, 4406.221
731.9241, 4404.599
732.4062, 4454.790
732.8883, 4489.941
733.3704, 4488.947
733.8525, 4459.459
734.3347, 4440.214
734.8168, 4431.634
735.2989, 4429.641
735.7810, 4435.901
736.2631, 4446.055
736.7452, 4451.489
737.2274, 4452.076
737.7095, 4446.947
738.1916, 4425.231
738.6737, 4405.005
739.1558, 4403.458
739.6379, 4425.606
740.1201, 4440.938
740.6022, 4437.433
741.0843, 4431.418
741.5664, 4432.737
742.0485, 4444.728
742.5306, 4448.845
743.0128, 4441.893
743.4949, 4436.524
743.9770, 4448.354
744.4591, 4473.436
744.9412, 4497.667
745.4233, 4520.590
745.9055, 4534.521
746.3876, 4519.149
746.8697, 4495.265
747.3518, 4491.737
747.8339, 4535.725
748.3160, 4572.223
748.7982, 4588.695
749.2803, 4589.597
749.7624, 4579.153
750.2445, 4547.541
750.7266, 4531.296
751.2087, 4540.673
751.6909, 4563.510
752.1730, 4568.546
752.6551, 4559.782
753.1372, 4570.274
753.6193, 4628.138
754.1014, 4694.383
754.5836, 4722.145
755.0657, 4721.394
755.5478, 4720.884
756.0299, 4733.033
756.5120, 4747.780
756.9941, 4765.818
757.4763, 4784.704
757.9584, 4789.746
758.4405, 4775.503
758.9226, 4757.320
759.4047, 4738.664
759.8868, 4720.828
760.3690, 4713.385
760.8511, 4716.307
761.3332, 4716.768
761.8153, 4708.416
762.2974, 4691.273
762.7795, 4658.864
763.2617, 4612.156
763.7438, 4577.368
764.2259, 4583.313
764.7080, 4592.615
765.1901, 4579.853
765.6722, 4535.909
766.1544, 4502.111
766.6365, 4478.897
767.1186, 4465.202
767.6007, 4462.148
768.0828, 4469.680
768.5649, 4479.775
769.0471, 4492.812
769.5292, 4503.339
770.0113, 4508.409
770.4934, 4506.730
770.9755, 4492.521
771.4576, 4460.436
771.9398, 4436.944
772.4219, 4443.061
772.9040, 4460.156
773.3861, 4470.501
773.8682, 4468.051
774.3503, 4465.810
774.8325, 4465.150
775.3146, 4462.963
775.7967, 4452.743
776.2788, 4434.428
776.7609, 4424.691
777.2430, 4427.165
777.7252, 4435.655
778.2073, 4448.135
778.6894, 4459.719
779.1715, 4459.945
779.6536, 4432.399
780.1357, 4413.292
780.6179, 4432.088
781.1000, 4466.832
781.5821, 4478.178
782.0642, 4442.225
782.5463, 4422.236
783.0284, 4434.292
783.5105, 4459.506
783.9926, 4454.508
784.4747, 4420.378
784.9568, 4393.229
785.4390, 4385.833
785.9211, 4389.576
786.4032, 4394.813
786.8853, 4401.530
787.3674, 4409.458
787.8495, 4421.378
788.3317, 4431.499
788.8138, 4437.673
789.2959, 4439.941
789.7780, 4438.767
790.2601, 4430.782
790.7422, 4425.432
791.2244, 4424.964
791.7065, 4428.695
792.1886, 4438.545
792.6707, 4453.580
793.1528, 4459.208
793.6349, 4435.715
794.1171, 4406.717
794.5992, 4404.030
795.0813, 4421.786
795.5634, 4436.675
796.0455, 4439.931
796.5276, 4437.132
797.0098, 4428.028
797.4919, 4413.825
797.9740, 4404.366
798.4561, 4401.418
798.9382, 4398.664
799.4203, 4390.793
799.9025, 4381.176
800.3846, 4388.677
800.8667, 4411.858
801.3488, 4430.949
801.8309, 4424.940
802.3130, 4413.829
802.7952, 4420.219
803.2773, 4443.050
803.7594, 4460.137
804.2415, 4460.866
804.7236, 4456.911
805.2057, 4451.459
805.6879, 4444.408
806.1700, 4448.029
806.6521, 4466.758
807.1342, 4479.899
807.6163, 4466.403
808.0984, 4437.176
808.5806, 4433.158
809.0627, 4453.181
809.5448, 4472.211
810.0269, 4468.597
810.5090, 4460.187
810.9911, 4461.071
811.4733, 4472.924
811.9554, 4486.683
812.4375, 4489.716
812.9196, 4506.953
813.4017, 4564.580
813.8839, 4667.214
814.3660, 4679.657
814.8481, 4590.511
815.3302, 4500.107
815.8123, 4495.606
816.2944, 4540.975
816.7766, 4570.709
817.2587, 4581.095
817.7408, 4582.539
818.2229, 4575.257
818.7050, 4566.101
819.1871, 4557.330
819.6693, 4546.547
820.1514, 4552.733
820.6335, 4582.157
821.1156, 4618.399
821.5977, 4652.875
822.0798, 4685.473
822.5620, 4712.563
823.0441, 4733.665
823.5262, 4750.195
824.0083, 4760.164
824.4904, 4767.277
824.9725, 4776.114
825.4547, 4787.095
825.9368, 4797.761
826.4189, 4804.180
826.9010, 4812.282
827.3831, 4826.788
827.8652, 4850.176
828.3474, 4864.759
828.8295, 4867.982
829.3116, 4870.786
829.7937, 4884.253
830.2758, 4904.403
830.7579, 4915.720
831.2401, 4917.392
831.7222, 4921.914
832.2043, 4941.021
832.6864, 4965.016
833.1685, 4986.675
833.6506, 5005.384
834.1328, 5019.273
834.6149, 5022.077
835.0970, 5027.841
835.5791, 5047.169
836.0612, 5080.792
836.5433, 5106.993
837.0255, 5125.510
837.5076, 5140.556
837.9897, 5150.870
838.4718, 5162.252
838.9539, 5187.581
839.4360, 5228.455
839.9182, 5260.928
840.4003, 5261.504
840.8824, 5260.605
841.3645, 5278.885
841.8466, 5319.301
842.3287, 5354.503
842.8109, 5382.347
843.2930, 5410.062
843.7751, 5439.692
844.2572, 5472.785
844.7393, 5518.495
845.2214, 5576.476
845.7036, 5633.737
846.1857, 5675.170
846.6678, 5716.186
847.1499, 5773.676
847.6320, 5850.327
848.1141, 5915.357
848.5963, 5954.093
849.0784, 5994.478
849.5605, 6047.273
850.0426, 6112.806
850.5247, 6197.846
851.0068, 6304.608
851.4890, 6402.423
851.9711, 6458.027
852.4532, 6498.647
852.9353, 6563.492
853.4174, 6652.529
853.8995, 6748.939
854.3817, 6844.111
854.8638, 6944.062
855.3459, 7055.728
855.8280, 7178.325
856.3101, 7289.744
856.7922, 7386.823
857.2744, 7485.096
857.7565, 7589.231
858.2386, 7701.208
858.7207, 7831.008
859.2028, 7974.283
859.6849, 8108.297
860.1671, 8204.410
860.6492, 8298.265
861.1313, 8416.447
861.6134, 8556.829
862.0955, 8685.023
862.5776, 8800.771
863.0598, 8901.002
863.5419, 8982.165
864.0240, 9046.711
864.5061, 9107.389
864.9882, 9163.150
865.4703, 9205.307
865.9524, 9239.539
866.4345, 9249.004
866.9166, 9208.588
867.3987, 9128.111
867.8809, 9035.160
868.3630, 8938.177
868.8451, 8831.632
869.3272, 8713.460
869.8093, 8584.273
870.2914, 8445.514
870.7736, 8294.243
871.2557, 8142.258
871.7378, 7991.158
872.2199, 7844.513
872.7020, 7708.318
873.1841, 7579.340
873.6663, 7450.498
874.1484, 7299.745
874.6305, 7169.055
875.1126, 7079.667
875.5947, 7019.461
876.0768, 6961.240
876.5590, 6904.875
877.0411, 6851.807
877.5232, 6803.667
878.0053, 6756.164
878.4874, 6699.941
878.9695, 6637.551
879.4517, 6574.944
879.9338, 6507.198
880.4159, 6456.337
880.8980, 6450.152
881.3801, 6464.397
881.8622, 6468.986
882.3444, 6454.886
882.8265, 6436.458
883.3086, 6408.546
883.7907, 6383.866
884.2728, 6382.423
884.7549, 6400.546
885.2371, 6404.276
885.7192, 6388.112
886.2013, 6367.133
886.6834, 6351.313
887.1655, 6340.313
887.6476, 6335.136
888.1298, 6338.662
888.6119, 6338.419
889.0940, 6333.433
889.5761, 6323.706
890.0582, 6305.075
890.5403, 6275.936
891.0225, 6269.084
891.5046, 6285.912
891.9867, 6306.755
892.4688, 6316.789
892.9509, 6320.095
893.4330, 6317.799
893.9152, 6310.449
894.3973, 6312.239
894.8794, 6344.695
895.3615, 6370.689
895.8436, 6367.010
896.3257, 6335.963
896.8079, 6340.336
897.2900, 6384.990
897.7721, 6424.367
898.2542, 6423.383
898.7363, 6404.651
899.2184, 6410.431
899.7006, 6435.363
900.1827, 6456.749
900.6648, 6464.536
901.1469, 6466.692
901.6290, 6462.632
902.1111, 6455.508
902.5933, 6455.582
903.0754, 6464.514
903.5575, 6474.487
904.0396, 6483.467
904.5217, 6492.165
905.0038, 6500.004
905.4860, 6508.616
905.9681, 6522.832
906.4502, 6552.218
906.9323, 6577.500
907.4144, 6582.159
907.8965, 6579.705
908.3787, 6593.260
908.8608, 6633.291
909.3429, 6660.557
909.8250, 6667.205
910.3071, 6669.030
910.7892, 6688.912
911.2714, 6721.602
911.7535, 6750.552
912.2356, 6770.123
912.7177, 6796.499
913.1998, 6860.479
913.6819, 6923.569
914.1641, 6944.465
914.6462, 6895.582
915.1283, 6880.578
915.6104, 6906.538
916.0925, 6950.812
916.5746, 7000.433
917.0568, 7054.052
917.5389, 7105.352
918.0210, 7154.399
918.5031, 7199.862
918.9852, 7240.413
919.4673, 7277.225
919.9495, 7305.584
920.4316, 7325.718
920.9137, 7367.974
921.3958, 7443.932
921.8779, 7519.122
922.3600, 7575.880
922.8422, 7621.963
923.3243, 7681.866
923.8064, 7754.698
924.2885, 7835.979
924.7706, 7926.969
925.2527, 8020.275
925.7349, 8108.919
926.2170, 8196.238
926.6991, 8289.003
927.1812, 8391.997
927.6633, 8494.371
928.1454, 8591.940
928.6276, 8690.432
929.1097, 8801.563
929.5918, 8922.709
930.0739, 9044.273
930.5560, 9159.046
931.0381, 9282.090
931.5203, 9417.172
932.0024, 9569.025
932.4845, 9743.625
932.9666, 9947.256
933.4487, 10162.01
933.9308, 10385.07
934.4130, 10621.78
934.8951, 10868.31
935.3772, 11131.63
935.8593, 11446.78
936.3414, 11814.31
936.8235, 12192.51
937.3057, 12512.29
937.7878, 12854.51
938.2699, 13301.69
938.7520, 13864.42
939.2341, 14378.00
939.7162, 14802.25
940.1984, 15238.21
940.6805, 15728.55
941.1626, 16268.15
941.6447, 16854.43
942.1268, 17482.31
942.6089, 18122.79
943.0911, 18731.30
943.5732, 19375.74
944.0553, 20105.84
944.5374, 20906.66
945.0195, 21728.46
945.5016, 22566.14
945.9838, 23404.14
946.4659, 24239.60
946.9480, 25070.62
947.4301, 25918.28
947.9122, 26768.10
948.3943, 27595.38
948.8764, 28420.95
949.3585, 29132.09
949.8406, 29658.02
950.3228, 30041.69
950.8049, 30325.03
951.2870, 30543.61
951.7691, 30578.34
952.2512, 30418.16
952.7333, 30103.12
953.2155, 29631.49
953.6976, 29036.95
954.1797, 28400.94
954.6618, 27730.63
955.1439, 27065.82
955.6260, 26425.23
956.1082, 25807.68
956.5903, 25209.72
957.0724, 24635.42
957.5545, 24132.98
958.0366, 23707.06
958.5187, 23333.46
959.0009, 23006.01
959.4830, 22718.36
959.9651, 22466.14
960.4472, 22245.90
960.9293, 22035.95
961.4114, 21840.63
961.8936, 21638.12
962.3757, 21412.41
962.8578, 21181.02
963.3399, 20960.52
963.8220, 20743.88
964.3041, 20576.25
964.7863, 20460.65
965.2684, 20388.40
965.7505, 20351.02
966.2326, 20348.38
966.7147, 20370.05
967.1968, 20410.88
967.6790, 20526.69
968.1611, 20804.91
968.6432, 21099.38
969.1253, 21338.57
969.6074, 21525.63
970.0895, 21739.16
970.5717, 21983.20
971.0538, 22207.54
971.5359, 22410.01
972.0180, 22558.64
972.5001, 22663.90
972.9822, 22686.23
973.4644, 22519.69
973.9465, 22103.33
974.4286, 21511.97
974.9107, 20738.15
975.3928, 19826.72
975.8749, 18816.19
976.3571, 17721.18
976.8392, 16648.32
977.3213, 15611.88
977.8034, 14662.88
978.2855, 13851.57
978.7676, 13145.80
979.2498, 12536.99
979.7319, 12034.65
980.2140, 11585.49
980.6961, 11189.07
981.1782, 10841.21
981.6603, 10542.00
982.1425, 10287.89
982.6246, 10059.28
983.1067, 9856.112
983.5888, 9663.192
984.0709, 9464.447
984.5530, 9281.226
985.0352, 9134.990
985.5173, 9016.523
985.9994, 8887.938
986.4815, 8745.897
986.9636, 8600.069
987.4457, 8445.683
987.9279, 8300.762
988.4100, 8199.970
988.8921, 8129.417
989.3742, 8058.277
989.8563, 7976.760
990.3384, 7899.503
990.8206, 7835.780
991.3027, 7774.603
991.7848, 7706.103
992.2669, 7627.201
992.7490, 7564.990
993.2311, 7520.876
993.7133, 7477.632
994.1954, 7425.529
994.6775, 7366.321
995.1596, 7295.313
995.6417, 7217.047
996.1238, 7155.418
996.6060, 7133.628
997.0881, 7109.494
997.5702, 7074.524
998.0523, 7031.581
998.5344, 6980.873
999.0165, 6925.044
999.4987, 6884.836
999.9808, 6869.089
1000.463, 6859.637
1000.945, 6849.458
1001.427, 6832.204
1001.909, 6797.325
1002.391, 6727.620
1002.873, 6688.064
1003.356, 6691.028
1003.838, 6694.184
1004.320, 6657.698
1004.802, 6597.925
1005.284, 6565.582
1005.766, 6559.215
1006.248, 6562.298
1006.730, 6568.836
1007.213, 6579.724
1007.695, 6601.482
1008.177, 6627.027
1008.659, 6637.244
1009.141, 6630.206
1009.623, 6617.781
1010.105, 6599.889
1010.587, 6585.022
1011.069, 6587.587
1011.552, 6599.364
1012.034, 6607.757
1012.516, 6607.420
1012.998, 6611.627
1013.480, 6630.044
1013.962, 6644.495
1014.444, 6639.797
1014.926, 6618.418
1015.409, 6616.339
1015.891, 6632.130
1016.373, 6641.299
1016.855, 6610.190
1017.337, 6584.130
1017.819, 6611.479
1018.301, 6672.320
1018.783, 6691.732
1019.265, 6640.713
1019.748, 6617.719
1020.230, 6645.374
1020.712, 6693.393
1021.194, 6722.451
1021.676, 6736.027
1022.158, 6739.179
1022.640, 6729.919
1023.122, 6725.585
1023.604, 6739.227
1024.087, 6755.049
1024.569, 6762.371
1025.051, 6761.306
1025.533, 6765.641
1026.015, 6775.355
1026.497, 6792.537
1026.979, 6815.730
1027.461, 6849.453
1027.943, 6902.573
1028.426, 6969.883
1028.908, 7039.493
1029.390, 7101.149
1029.872, 7178.554
1030.354, 7273.958
1030.836, 7384.455
1031.318, 7512.148
1031.800, 7651.558
1032.283, 7781.135
1032.765, 7897.603
1033.247, 8024.663
1033.729, 8173.793
1034.211, 8339.836
1034.693, 8521.354
1035.175, 8715.596
1035.657, 8909.889
1036.140, 9100.744
1036.622, 9308.378
1037.104, 9536.327
1037.586, 9789.074
1038.068, 10091.66
1038.550, 10415.95
1039.032, 10709.17
1039.514, 10908.39
1039.996, 11152.87
1040.479, 11473.60
1040.961, 11810.31
1041.443, 12132.54
1041.925, 12428.25
1042.407, 12640.66
1042.889, 12768.20
1043.371, 12778.22
1043.853, 12628.35
1044.335, 12375.11
1044.818, 12038.05
1045.300, 11625.60
1045.782, 11138.79
1046.264, 10565.73
1046.746, 10016.20
1047.228, 9506.637
1047.710, 9051.032
1048.192, 8675.697
1048.675, 8361.241
1049.157, 8080.451
1049.639, 7825.955
1050.121, 7600.751
1050.603, 7405.193
1051.085, 7231.216
1051.567, 7072.242
1052.049, 6930.308
1052.531, 6823.724
1053.014, 6749.042
1053.496, 6681.209
1053.978, 6608.729
1054.460, 6536.666
1054.942, 6466.985
1055.424, 6400.305
1055.906, 6335.358
1056.388, 6269.013
1056.870, 6222.190
1057.353, 6200.526
1057.835, 6185.706
1058.317, 6157.868
1058.799, 6124.914
1059.281, 6099.262
1059.763, 6082.852
1060.245, 6056.278
1060.727, 6004.646
1061.210, 5960.449
1061.692, 5937.171
1062.174, 5927.610
1062.656, 5910.251
1063.138, 5887.240
1063.620, 5866.115
1064.102, 5844.799
1064.584, 5835.358
1065.067, 5865.380
1065.549, 5895.601
1066.031, 5881.485
1066.513, 5809.703
1066.995, 5775.816
1067.477, 5782.827
1067.959, 5795.800
1068.441, 5784.855
1068.923, 5769.016
1069.406, 5769.974
1069.888, 5784.268
1070.370, 5794.563
1070.852, 5797.740
1071.334, 5797.203
1071.816, 5792.479
1072.298, 5785.916
1072.780, 5777.967
1073.262, 5771.354
1073.745, 5776.496
1074.227, 5797.332
1074.709, 5808.101
1075.191, 5783.457
1075.673, 5759.145
1076.155, 5756.052
1076.637, 5769.972
1077.119, 5769.440
1077.601, 5755.272
1078.084, 5740.201
1078.566, 5726.640
1079.048, 5719.108
1079.530, 5726.042
1080.012, 5739.406
1080.494, 5746.884
1080.976, 5742.122
1081.458, 5747.762
1081.941, 5767.146
1082.423, 5783.414
1082.905, 5778.011
1083.387, 5762.975
1083.869, 5759.266
1084.351, 5765.007
1084.833, 5767.471
1085.315, 5760.293
1085.797, 5751.941
1086.280, 5741.765
1086.762, 5734.073
1087.244, 5738.328
1087.726, 5751.733
1088.208, 5762.792
1088.690, 5769.670
1089.172, 5773.516
1089.654, 5776.617
1090.136, 5775.030
1090.619, 5764.467
1091.101, 5746.322
1091.583, 5730.054
1092.065, 5715.372
1092.547, 5710.985
1093.029, 5725.586
1093.511, 5742.345
1093.993, 5742.163
1094.476, 5733.598
1094.958, 5728.907
1095.440, 5732.947
1095.922, 5733.295
1096.404, 5729.040
1096.886, 5724.207
1097.368, 5717.961
1097.850, 5714.979
1098.333, 5730.506
1098.815, 5758.726
1099.297, 5776.646
1099.779, 5762.889
1100.261, 5755.215
1100.743, 5763.561
1101.225, 5776.928
1101.707, 5776.996
1102.189, 5767.823
1102.672, 5771.605
1103.154, 5791.006
1103.636, 5811.141
1104.118, 5830.961
1104.600, 5841.110
1105.082, 5832.249
1105.564, 5809.651
1106.046, 5787.307
1106.528, 5764.716
1107.011, 5766.644
1107.493, 5810.728
1107.975, 5850.189
1108.457, 5821.761
1108.939, 5773.037
1109.421, 5760.523
1109.903, 5801.264
1110.385, 5827.065
1110.868, 5835.607
1111.350, 5836.528
1111.832, 5832.303
1112.314, 5825.889
1112.796, 5817.718
1113.278, 5811.944
1113.760, 5818.294
1114.242, 5854.769
1114.724, 5881.546
1115.207, 5894.792
1115.689, 5898.913
1116.171, 5895.134
1116.653, 5885.903
1117.135, 5879.063
1117.617, 5874.968
1118.099, 5873.459
1118.581, 5878.301
1119.063, 5880.932
1119.546, 5873.302
1120.028, 5865.071
1120.510, 5879.232
1120.992, 5913.013
1121.474, 5931.046
1121.956, 5927.408
1122.438, 5914.538
1122.920, 5889.820
1123.403, 5869.684
1123.885, 5876.348
1124.367, 5902.826
1124.849, 5893.719
1125.331, 5844.195
1125.813, 5814.844
1126.295, 5830.644
1126.777, 5861.358
1127.260, 5877.938
1127.742, 5886.232
1128.224, 5893.617
1128.706, 5902.694
1129.188, 5903.839
1129.670, 5895.706
1130.152, 5883.479
1130.634, 5863.857
1131.116, 5846.935
1131.599, 5858.919
1132.081, 5887.087
1132.563, 5901.091
1133.045, 5867.677
1133.527, 5857.001
1134.009, 5884.711
1134.491, 5916.477
1134.973, 5915.854
1135.455, 5894.251
1135.938, 5890.066
1136.420, 5901.125
1136.902, 5905.571
1137.384, 5882.486
1137.866, 5864.368
1138.348, 5863.402
1138.830, 5869.626
1139.312, 5869.228
1139.795, 5862.291
1140.277, 5844.317
1140.759, 5814.325
1141.241, 5795.515
1141.723, 5818.045
1142.205, 5842.462
1142.687, 5848.350
1143.169, 5837.375
1143.651, 5808.551
1144.134, 5761.993
1144.616, 5729.299
1145.098, 5720.685
1145.580, 5719.345
1146.062, 5720.271
1146.544, 5714.879
1147.026, 5688.030
1147.508, 5638.771
1147.990, 5617.131
1148.473, 5625.689
1148.955, 5639.180
1149.437, 5647.643
1149.919, 5653.633
1150.401, 5662.285
1150.883, 5669.231
1151.365, 5667.314
1151.847, 5651.781
1152.330, 5636.859
1152.812, 5621.789
1153.294, 5609.892
1153.776, 5604.934
1154.258, 5603.367
1154.740, 5598.416
1155.222, 5592.360
1155.704, 5590.884
1156.186, 5605.325
1156.669, 5609.502
1157.151, 5600.741
1157.633, 5585.417
1158.115, 5564.755
1158.597, 5544.026
1159.079, 5533.335
1159.561, 5533.264
1160.043, 5543.689
1160.526, 5581.261
1161.008, 5606.071
1161.490, 5608.807
1161.972, 5598.248
1162.454, 5580.873
1162.936, 5561.201
1163.418, 5556.518
1163.900, 5568.634
1164.382, 5576.754
1164.865, 5564.858
1165.347, 5554.438
1165.829, 5553.438
1166.311, 5558.912
1166.793, 5568.972
1167.275, 5580.125
1167.757, 5569.758
1168.239, 5526.855
1168.721, 5500.855
1169.204, 5542.048
1169.686, 5585.427
1170.168, 5589.144
1170.650, 5563.458
1171.132, 5563.706
1171.614, 5586.201
1172.096, 5602.168
1172.578, 5601.385
1173.061, 5592.202
1173.543, 5568.141
1174.025, 5547.318
1174.507, 5546.788
1174.989, 5566.165
1175.471, 5581.298
1175.953, 5591.648
1176.435, 5586.824
1176.917, 5541.260
1177.400, 5506.832
1177.882, 5543.763
1178.364, 5601.809
1178.846, 5613.838
1179.328, 5569.567
1179.810, 5539.729
1180.292, 5524.820
1180.774, 5518.955
1181.256, 5519.682
1181.739, 5526.565
1182.221, 5545.341
1182.703, 5568.156
1183.185, 5579.020
1183.667, 5575.571
1184.149, 5568.362
1184.631, 5557.305
1185.113, 5547.319
1185.596, 5543.402
1186.078, 5541.530
1186.560, 5533.293
1187.042, 5523.781
1187.524, 5532.430
1188.006, 5566.580
1188.488, 5590.133
1188.970, 5597.572
1189.453, 5599.727
1189.935, 5615.825
1190.417, 5626.395
1190.899, 5599.556
1191.381, 5541.691
1191.863, 5516.573
1192.345, 5535.457
1192.827, 5554.522
1193.309, 5565.262
1193.792, 5573.148
1194.274, 5584.808
1194.756, 5597.562
1195.238, 5609.703
1195.720, 5620.788
1196.202, 5623.759
1196.684, 5616.958
1197.166, 5605.766
1197.648, 5588.795
1198.131, 5575.759
1198.613, 5587.253
1199.095, 5607.363
1199.577, 5614.449
1200.059, 5603.322
1200.541, 5587.492
1201.023, 5562.387
1201.505, 5550.676
1201.988, 5565.390
1202.470, 5590.608
1202.952, 5610.822
1203.434, 5621.298
1203.916, 5610.706
1204.398, 5564.195
1204.880, 5547.479
1205.362, 5572.829
1205.844, 5592.605
1206.327, 5574.499
1206.809, 5545.715
1207.291, 5554.038
1207.773, 5584.684
1208.255, 5612.741
1208.737, 5639.825
1209.219, 5641.385
1209.701, 5607.405
1210.183, 5578.778
1210.666, 5586.553
1211.148, 5611.792
1211.630, 5626.058
1212.112, 5631.699
1212.594, 5633.709
1213.076, 5632.348
1213.558, 5628.494
1214.040, 5621.425
1214.523, 5614.393
1215.005, 5610.541
1215.487, 5607.972
1215.969, 5606.564
1216.451, 5603.709
1216.933, 5591.776
1217.415, 5550.212
1217.897, 5538.241
1218.380, 5564.291
1218.862, 5599.849
1219.344, 5621.098
1219.826, 5636.057
1220.308, 5661.312
1220.790, 5691.342
1221.272, 5704.500
1221.754, 5686.629
1222.236, 5675.966
1222.719, 5676.976
1223.201, 5680.944
1223.683, 5677.014
1224.165, 5672.247
1224.647, 5681.177
1225.129, 5699.471
1225.611, 5702.624
1226.093, 5681.727
1226.575, 5661.704
1227.058, 5642.684
1227.540, 5637.375
1228.022, 5678.750
1228.504, 5728.926
1228.986, 5732.114
1229.468, 5694.069
1229.950, 5681.100
1230.432, 5705.802
1230.915, 5727.322
1231.397, 5739.912
1231.879, 5744.020
1232.361, 5730.633
1232.843, 5715.622
1233.325, 5722.761
1233.807, 5749.355
1234.289, 5755.319
1234.771, 5733.545
1235.254, 5718.395
1235.736, 5717.060
1236.218, 5723.107
1236.700, 5734.585
1237.182, 5745.943
1237.664, 5750.282
1238.146, 5747.715
1238.628, 5749.145
1239.110, 5755.832
1239.593, 5756.544
1240.075, 5747.017
1240.557, 5737.114
1241.039, 5738.605
1241.521, 5742.793
1242.003, 5736.333
1242.485, 5722.226
1242.967, 5736.092
1243.449, 5780.739
1243.932, 5806.603
1244.414, 5795.435
1244.896, 5781.262
1245.378, 5805.414
1245.860, 5831.909
1246.342, 5824.542
1246.824, 5789.381
1247.306, 5760.612
1247.789, 5738.510
1248.271, 5733.191
1248.753, 5750.246
1249.235, 5773.567
1249.717, 5801.208
1250.199, 5820.335
1250.681, 5818.221
1251.163, 5799.237
1251.646, 5790.034
1252.128, 5789.779
1252.610, 5793.658
1253.092, 5802.087
1253.574, 5807.411
1254.056, 5793.344
1254.538, 5787.237
1255.020, 5812.932
1255.502, 5859.030
1255.984, 5863.928
1256.467, 5836.002
1256.949, 5815.697
1257.431, 5818.877
1257.913, 5820.752
1258.395, 5797.454
1258.877, 5785.144
1259.359, 5809.406
1259.841, 5854.788
1260.324, 5863.715
1260.806, 5846.563
1261.288, 5835.412
1261.770, 5841.624
1262.252, 5849.680
1262.734, 5859.387
1263.216, 5863.742
1263.698, 5856.209
1264.181, 5843.335
1264.663, 5842.342
1265.145, 5849.334
1265.627, 5854.567
1266.109, 5851.312
1266.591, 5861.350
1267.073, 5896.223
1267.555, 5919.594
1268.037, 5907.176
1268.520, 5878.369
1269.002, 5867.113
1269.484, 5865.861
1269.966, 5860.329
1270.448, 5843.428
1270.930, 5834.855
1271.412, 5835.653
1271.894, 5841.172
1272.376, 5849.208
1272.859, 5860.476
1273.341, 5882.351
1273.823, 5904.979
1274.305, 5910.706
1274.787, 5892.645
1275.269, 5895.510
1275.751, 5921.620
1276.233, 5945.181
1276.716, 5957.389
1277.198, 5955.629
1277.680, 5917.752
1278.162, 5877.733
1278.644, 5881.275
1279.126, 5930.862
1279.608, 5946.853
1280.090, 5931.116
1280.573, 5921.357
1281.055, 5941.692
1281.537, 5959.948
1282.019, 5952.727
1282.501, 5936.516
1282.983, 5919.606
1283.465, 5904.786
1283.947, 5934.346
##END=



