##NAMES=Afwillite
##RRUFFID=R080022
##IDEAL CHEMISTRY=Ca_3_(SiO_4_)(SiO_2_(OH)_2_)&#183;2H_2_O
##LOCALITY=Crestmore Quarry, Riverside County, Jurupa Mountains, California, USA
##OWNER=Michael Scott
##SOURCE=Michael Scott
##DESCRIPTION=Colorless, prismatic and elongated crystals associated with colorless fibers of thaumasite, R060814
##STATUS=The identification of this mineral is confirmed by single-crystal X-ray diffraction and chemical analysis.
##URL=rruff.info/R080022
##MEASURED CHEMISTRY=Ca_3.00_(Si_1.00_O_3_)_2_(OH)_2_Â·2H_2_O; trace amounts of Fe, Al, Cr; OH estimated by charge balance; H_2_O by difference;
131.6331, 51.14252
132.1152, 51.35444
132.5973, 51.61435
133.0794, 51.96069
133.5615, 52.37753
134.0436, 52.79245
134.5258, 53.22311
135.0079, 53.63160
135.4900, 54.01494
135.9721, 54.37324
136.4542, 54.73832
136.9363, 55.15670
137.4185, 55.59949
137.9006, 55.66049
138.3827, 55.12064
138.8648, 54.49549
139.3469, 53.97320
139.8290, 53.57019
140.3112, 53.27018
140.7933, 53.05168
141.2754, 52.93992
141.7575, 52.99552
142.2396, 53.36333
142.7217, 53.83103
143.2039, 54.18711
143.6860, 54.41643
144.1681, 54.54714
144.6502, 54.57904
145.1323, 54.53184
145.6144, 54.42450
146.0966, 54.33464
146.5787, 54.19957
147.0608, 53.80291
147.5429, 53.03967
148.0250, 52.11695
148.5071, 51.16129
148.9893, 50.17085
149.4714, 49.12553
149.9535, 47.97500
150.4356, 46.70369
150.9177, 45.53225
151.3998, 44.53485
151.8820, 43.59567
152.3641, 42.69120
152.8462, 41.81028
153.3283, 40.93916
153.8104, 40.03685
154.2925, 39.03930
154.7747, 38.21712
155.2568, 37.58944
155.7389, 37.07713
156.2210, 36.68269
156.7031, 36.38615
157.1852, 36.10557
157.6673, 35.70883
158.1495, 35.07149
158.6316, 34.52983
159.1137, 34.14727
159.5958, 33.82747
160.0779, 33.46016
160.5600, 33.00340
161.0422, 32.52659
161.5243, 32.19770
162.0064, 32.13023
162.4885, 31.93186
162.9706, 31.39421
163.4527, 30.67186
163.9349, 30.06579
164.4170, 29.69448
164.8991, 29.49782
165.3812, 29.35660
165.8633, 29.29075
166.3454, 29.21318
166.8276, 29.05380
167.3097, 28.82607
167.7918, 28.62893
168.2739, 28.52295
168.7560, 28.45321
169.2381, 28.33657
169.7203, 28.14230
170.2024, 27.97774
170.6845, 27.98637
171.1666, 28.20555
171.6487, 28.37736
172.1308, 28.38000
172.6130, 28.31271
173.0951, 28.23081
173.5772, 28.14590
174.0593, 28.07870
174.5414, 28.10108
175.0235, 28.35011
175.5057, 28.38304
175.9878, 28.00914
176.4699, 27.46401
176.9520, 26.94068
177.4341, 26.52465
177.9162, 26.20766
178.3984, 25.96099
178.8805, 25.82748
179.3626, 25.72005
179.8447, 25.63899
180.3268, 25.57212
180.8089, 25.49450
181.2911, 25.38929
181.7732, 25.27495
182.2553, 25.25998
182.7374, 25.47021
183.2195, 25.64145
183.7016, 25.69186
184.1838, 25.66977
184.6659, 25.66914
185.1480, 25.75176
185.6301, 25.90613
186.1122, 26.01115
186.5943, 25.98954
187.0765, 26.00715
187.5586, 26.16897
188.0407, 26.43506
188.5228, 26.67055
189.0049, 26.78078
189.4870, 26.77863
189.9692, 26.79551
190.4513, 26.88555
190.9334, 26.94950
191.4155, 26.89079
191.8976, 26.71799
192.3797, 26.56820
192.8619, 26.54214
193.3440, 26.61012
193.8261, 26.67600
194.3082, 26.73176
194.7903, 26.78069
195.2724, 26.86347
195.7546, 27.00252
196.2367, 27.03051
196.7188, 26.63864
197.2009, 26.10162
197.6830, 25.80718
198.1651, 25.98245
198.6473, 26.38750
199.1294, 26.60190
199.6115, 26.55345
200.0936, 26.48891
200.5757, 26.53676
201.0578, 26.63597
201.5400, 26.72384
202.0221, 26.80030
202.5042, 26.82512
202.9863, 26.66916
203.4684, 26.24996
203.9505, 25.76947
204.4327, 25.19910
204.9148, 24.63743
205.3969, 24.22900
205.8790, 24.07590
206.3611, 24.12236
206.8432, 24.07888
207.3254, 23.85266
207.8075, 23.64000
208.2896, 23.48818
208.7717, 23.37723
209.2538, 23.26712
209.7359, 23.12825
210.2181, 22.97137
210.7002, 22.90227
211.1823, 22.98070
211.6644, 23.09229
212.1465, 23.24896
212.6286, 23.42199
213.1108, 23.55832
213.5929, 23.61494
214.0750, 23.60405
214.5571, 23.70543
215.0392, 23.98993
215.5213, 24.29924
216.0035, 24.62418
216.4856, 24.94171
216.9677, 25.19603
217.4498, 25.33737
217.9319, 25.38122
218.4140, 25.56364
218.8962, 25.95271
219.3783, 26.37366
219.8604, 26.79916
220.3425, 27.20942
220.8246, 27.55743
221.3067, 27.80613
221.7889, 27.96570
222.2710, 28.13549
222.7531, 28.30432
223.2352, 28.49120
223.7173, 28.71340
224.1994, 28.96555
224.6816, 29.23100
225.1637, 29.52278
225.6458, 29.80836
226.1279, 29.99207
226.6100, 30.02952
227.0921, 30.01233
227.5743, 29.96861
228.0564, 29.90490
228.5385, 29.89515
229.0206, 30.02615
229.5027, 30.21871
229.9848, 30.29457
230.4670, 30.17892
230.9491, 30.03168
231.4312, 29.95810
231.9133, 29.95742
232.3954, 30.07412
232.8775, 30.42934
233.3597, 30.87067
233.8418, 31.20497
234.3239, 31.40663
234.8060, 31.50332
235.2881, 31.48149
235.7702, 31.32274
236.2524, 31.22061
236.7345, 31.34156
237.2166, 31.50757
237.6987, 31.57193
238.1808, 31.50584
238.6629, 31.33066
239.1451, 31.08113
239.6272, 30.76791
240.1093, 30.32410
240.5914, 29.58390
241.0735, 28.78584
241.5556, 28.09020
242.0378, 27.53202
242.5199, 27.06588
243.0020, 26.62258
243.4841, 26.19143
243.9662, 25.83586
244.4483, 25.63612
244.9305, 25.46771
245.4126, 25.23635
245.8947, 24.92560
246.3768, 24.60963
246.8589, 24.40367
247.3410, 24.35844
247.8232, 24.26498
248.3053, 24.09246
248.7874, 23.87787
249.2695, 23.60833
249.7516, 23.29653
250.2337, 23.01059
250.7159, 22.86791
251.1980, 22.96985
251.6801, 22.93586
252.1622, 22.61359
252.6443, 22.28277
253.1264, 22.14082
253.6086, 22.18971
254.0907, 22.25825
254.5728, 22.10337
255.0549, 21.56597
255.5370, 21.29925
256.0191, 21.52625
256.5013, 21.79287
256.9834, 21.84849
257.4655, 21.68046
257.9476, 21.43332
258.4297, 21.26407
258.9118, 21.19724
259.3940, 21.10746
259.8761, 21.01815
260.3582, 20.89221
260.8403, 20.71195
261.3224, 20.47692
261.8045, 20.18696
262.2867, 19.82718
262.7688, 19.37212
263.2509, 19.03702
263.7330, 18.89441
264.2151, 18.77844
264.6972, 18.62982
265.1794, 18.44125
265.6615, 18.21216
266.1436, 17.93325
266.6257, 17.59825
267.1078, 17.35624
267.5899, 17.16033
268.0721, 17.07472
268.5542, 17.23271
269.0363, 17.54234
269.5184, 17.74495
270.0005, 17.63972
270.4826, 17.25497
270.9648, 17.02351
271.4469, 16.98550
271.9290, 17.01949
272.4111, 17.12613
272.8932, 17.27298
273.3753, 17.38635
273.8575, 17.41588
274.3396, 17.38395
274.8217, 17.40910
275.3038, 17.52488
275.7859, 17.64517
276.2680, 17.73757
276.7502, 17.81541
277.2323, 17.91700
277.7144, 18.06944
278.1965, 18.23932
278.6786, 18.31142
279.1607, 18.20639
279.6429, 18.16537
280.1250, 18.33829
280.6071, 18.60898
281.0892, 18.75370
281.5713, 18.67812
282.0534, 18.48520
282.5356, 18.37551
283.0177, 18.36762
283.4998, 18.35448
283.9819, 18.32475
284.4640, 18.27031
284.9461, 18.17683
285.4283, 18.03923
285.9104, 17.86760
286.3925, 17.64489
286.8746, 17.35435
287.3567, 17.16131
287.8388, 17.13739
288.3210, 17.21372
288.8031, 17.33808
289.2852, 17.51355
289.7673, 17.63208
290.2494, 17.51836
290.7315, 17.18882
291.2137, 16.98113
291.6958, 17.08645
292.1779, 17.26209
292.6600, 17.21053
293.1421, 16.89843
293.6242, 16.57172
294.1064, 16.43500
294.5885, 16.46178
295.0706, 16.48928
295.5527, 16.54893
296.0348, 16.57121
296.5169, 16.43839
296.9991, 16.15886
297.4812, 15.96174
297.9633, 16.02145
298.4454, 16.27385
298.9275, 16.48186
299.4096, 16.62118
299.8918, 16.73382
300.3739, 16.86380
300.8560, 17.00223
301.3381, 17.07390
301.8202, 16.99986
302.3023, 16.87415
302.7845, 16.89162
303.2666, 17.10929
303.7487, 17.33003
304.2308, 17.42532
304.7129, 17.42810
305.1950, 17.45681
305.6772, 17.55522
306.1593, 17.68836
306.6414, 17.81555
307.1235, 17.94264
307.6056, 18.03291
308.0877, 18.05662
308.5699, 18.03308
309.0520, 17.98920
309.5341, 17.90611
310.0162, 17.86561
310.4983, 18.01691
310.9804, 18.32745
311.4626, 18.56293
311.9447, 18.59207
312.4268, 18.52050
312.9089, 18.51372
313.3910, 18.59791
313.8731, 18.69538
314.3553, 18.72558
314.8374, 18.71380
315.3195, 18.74433
315.8016, 18.84785
316.2837, 18.99309
316.7658, 19.14831
317.2480, 19.31273
317.7301, 19.49566
318.2122, 19.72671
318.6943, 19.97463
319.1764, 20.15927
319.6585, 20.21271
320.1407, 20.28015
320.6228, 20.53780
321.1049, 20.94755
321.5870, 21.22089
322.0691, 21.18892
322.5512, 20.98251
323.0334, 20.84587
323.5155, 20.78253
323.9976, 20.77381
324.4797, 20.85132
324.9618, 20.98162
325.4439, 21.06523
325.9261, 21.07853
326.4082, 21.02853
326.8903, 20.91169
327.3724, 20.73143
327.8545, 20.53631
328.3366, 20.33183
328.8188, 20.12707
329.3009, 19.94587
329.7830, 19.79911
330.2651, 19.63763
330.7472, 19.38445
331.2293, 19.06205
331.7115, 18.79843
332.1936, 18.67209
332.6757, 18.58259
333.1578, 18.40489
333.6399, 18.13324
334.1220, 17.89206
334.6042, 17.77305
335.0863, 17.75189
335.5684, 17.71661
336.0505, 17.69403
336.5326, 17.62645
337.0147, 17.42194
337.4969, 17.11954
337.9790, 16.90348
338.4611, 16.87478
338.9432, 16.96559
339.4253, 17.02024
339.9074, 17.02484
340.3896, 17.03378
340.8717, 17.07285
341.3538, 17.13049
341.8359, 17.20270
342.3180, 17.30413
342.8001, 17.36181
343.2823, 17.21162
343.7644, 16.82020
344.2465, 16.58406
344.7286, 16.70042
345.2107, 16.94594
345.6928, 17.08788
346.1750, 17.09365
346.6571, 17.01522
347.1392, 16.87421
347.6213, 16.67033
348.1034, 16.53608
348.5855, 16.53714
349.0677, 16.55219
349.5498, 16.51515
350.0319, 16.42398
350.5140, 16.27715
350.9961, 16.05003
351.4782, 15.77880
351.9604, 15.63604
352.4425, 15.70377
352.9246, 15.77495
353.4067, 15.78751
353.8888, 15.76065
354.3709, 15.75100
354.8531, 15.79006
355.3352, 15.79424
355.8173, 15.57598
356.2994, 14.95659
356.7815, 14.53122
357.2636, 14.45573
357.7458, 14.53829
358.2279, 14.63625
358.7100, 14.71102
359.1921, 14.72228
359.6742, 14.61107
360.1563, 14.34330
360.6385, 14.16141
361.1206, 14.12721
361.6027, 14.11311
362.0848, 14.02704
362.5669, 13.89560
363.0490, 13.82652
363.5312, 13.90741
364.0133, 14.10756
364.4954, 14.17098
364.9775, 13.95669
365.4596, 13.78146
365.9417, 13.74008
366.4239, 13.76473
366.9060, 13.75177
367.3881, 13.65926
367.8702, 13.53886
368.3523, 13.50000
368.8344, 13.63065
369.3166, 13.70115
369.7987, 13.63928
370.2808, 13.57264
370.7629, 13.63182
371.2450, 13.81187
371.7271, 13.97293
372.2093, 13.94666
372.6914, 13.68482
373.1735, 13.54838
373.6556, 13.59788
374.1377, 13.70388
374.6198, 13.87698
375.1020, 14.07027
375.5841, 14.19345
376.0662, 14.18088
376.5483, 14.06823
377.0304, 14.02696
377.5125, 14.11045
377.9947, 14.19298
378.4768, 14.21852
378.9589, 14.25038
379.4410, 14.38269
379.9231, 14.64036
380.4052, 14.91039
380.8874, 14.99292
381.3695, 14.80132
381.8516, 14.70650
382.3337, 14.78823
382.8158, 14.93010
383.2979, 15.09346
383.7801, 15.26727
384.2622, 15.44335
384.7443, 15.62827
385.2264, 15.81629
385.7085, 15.93708
386.1906, 15.93328
386.6728, 15.94386
387.1549, 16.03968
387.6370, 16.17990
388.1191, 16.30157
388.6012, 16.37618
389.0833, 16.42385
389.5655, 16.47656
390.0476, 16.53379
390.5297, 16.59852
391.0118, 16.67698
391.4939, 16.76089
391.9760, 16.82982
392.4582, 16.88010
392.9403, 16.96874
393.4224, 17.20337
393.9045, 17.54325
394.3866, 17.72791
394.8687, 17.67929
395.3509, 17.53415
395.8330, 17.35812
396.3151, 17.17182
396.7972, 17.05124
397.2793, 17.08797
397.7614, 17.17789
398.2436, 17.16433
398.7257, 17.03969
399.2078, 16.90147
399.6899, 16.80977
400.1720, 16.73869
400.6541, 16.62850
401.1363, 16.45375
401.6184, 16.28433
402.1005, 16.15280
402.5826, 16.05888
403.0647, 16.01667
403.5468, 16.04912
404.0290, 16.08387
404.5111, 15.98134
404.9932, 15.72061
405.4753, 15.56581
405.9574, 15.63593
406.4395, 15.78888
406.9217, 15.91949
407.4038, 16.00947
407.8859, 16.01839
408.3680, 15.89384
408.8501, 15.65085
409.3322, 15.49548
409.8144, 15.47812
410.2965, 15.47632
410.7786, 15.46034
411.2607, 15.42807
411.7428, 15.35937
412.2249, 15.24332
412.7071, 15.13739
413.1892, 15.16427
413.6713, 15.49179
414.1534, 15.64490
414.6355, 15.51472
415.1176, 15.29856
415.5998, 15.12784
416.0819, 15.01642
416.5640, 14.90976
417.0461, 14.75180
417.5282, 14.54104
418.0103, 14.40497
418.4925, 14.47192
418.9746, 14.47486
419.4567, 14.29312
419.9388, 14.03044
420.4209, 13.84070
420.9030, 13.79592
421.3852, 13.81645
421.8673, 13.72671
422.3494, 13.45125
422.8315, 13.25951
423.3136, 13.29194
423.7957, 13.32007
424.2779, 13.18700
424.7600, 12.89943
425.2421, 12.58452
425.7242, 12.32779
426.2063, 12.13047
426.6884, 12.02392
427.1706, 12.05557
427.6527, 12.10144
428.1348, 12.13812
428.6169, 12.14519
429.0990, 12.08507
429.5811, 11.93192
430.0633, 11.74015
430.5454, 11.56365
431.0275, 11.40180
431.5096, 11.28768
431.9917, 11.26127
432.4738, 11.25737
432.9560, 11.19466
433.4381, 11.07415
433.9202, 10.97823
434.4023, 10.95803
434.8844, 10.98453
435.3665, 11.02502
435.8487, 11.08306
436.3308, 11.08941
436.8129, 10.94507
437.2950, 10.70582
437.7771, 10.60545
438.2592, 10.79289
438.7414, 10.96608
439.2235, 10.90900
439.7056, 10.71322
440.1877, 10.60274
440.6698, 10.66263
441.1519, 10.82353
441.6341, 10.98583
442.1162, 11.16723
442.5983, 11.29104
443.0804, 11.33067
443.5625, 11.32858
444.0446, 11.29985
444.5268, 11.25577
445.0089, 11.22589
445.4910, 11.23773
445.9731, 11.28272
446.4552, 11.27716
446.9373, 11.08656
447.4195, 11.00750
447.9016, 11.17818
448.3837, 11.43882
448.8658, 11.60077
449.3479, 11.61162
449.8300, 11.57354
450.3122, 11.63605
450.7943, 11.83037
451.2764, 12.00832
451.7585, 12.17998
452.2406, 12.32487
452.7227, 12.39960
453.2049, 12.44050
453.6870, 12.53798
454.1691, 12.77290
454.6512, 13.05957
455.1333, 13.15184
455.6154, 12.96598
456.0976, 12.83597
456.5797, 12.92715
457.0618, 13.08096
457.5439, 13.19172
458.0260, 13.24337
458.5081, 13.25140
458.9903, 13.18744
459.4724, 13.08388
459.9545, 13.07592
460.4366, 13.21353
460.9187, 13.34695
461.4008, 13.32422
461.8830, 13.20954
462.3651, 13.16239
462.8472, 13.26802
463.3293, 13.38767
463.8114, 13.40669
464.2935, 13.34959
464.7756, 13.29535
465.2578, 13.26230
465.7399, 13.27360
466.2220, 13.39987
466.7041, 13.70222
467.1862, 13.86279
467.6683, 13.76475
468.1505, 13.57028
468.6326, 13.37237
469.1147, 13.19615
469.5968, 13.08067
470.0789, 13.05702
470.5610, 13.11413
471.0432, 13.17786
471.5253, 13.33017
472.0074, 13.38584
472.4895, 13.25305
472.9716, 13.05270
473.4537, 12.89702
473.9359, 12.81556
474.4180, 12.77901
474.9001, 12.76520
475.3822, 12.78376
475.8643, 12.74607
476.3464, 12.59932
476.8286, 12.45006
477.3107, 12.32693
477.7928, 12.22546
478.2749, 12.12492
478.7570, 12.00649
479.2391, 11.92134
479.7213, 11.98944
480.2034, 12.23817
480.6855, 12.40041
481.1676, 12.33960
481.6497, 12.24744
482.1318, 12.30988
482.6140, 12.50507
483.0961, 12.64390
483.5782, 12.58076
484.0603, 12.42994
484.5424, 12.36068
485.0245, 12.37941
485.5067, 12.46397
485.9888, 12.62210
486.4709, 12.82958
486.9530, 13.02778
487.4351, 13.25110
487.9172, 13.39369
488.3994, 13.34089
488.8815, 13.22003
489.3636, 13.21094
489.8457, 13.34512
490.3278, 13.52617
490.8099, 13.66573
491.2921, 13.76113
491.7742, 13.86284
492.2563, 14.01820
492.7384, 14.12486
493.2205, 14.10906
493.7026, 14.03928
494.1848, 14.00011
494.6669, 14.02531
495.1490, 14.11284
495.6311, 14.27874
496.1132, 14.57132
496.5953, 14.78343
497.0775, 14.83806
497.5596, 14.88451
498.0417, 14.98790
498.5238, 15.12897
499.0059, 15.25873
499.4880, 15.35346
499.9702, 15.41970
500.4523, 15.45482
500.9344, 15.44631
501.4165, 15.49076
501.8986, 15.67352
502.3807, 15.86808
502.8629, 15.96102
503.3450, 15.95140
503.8271, 15.90034
504.3092, 15.76246
504.7913, 15.63225
505.2734, 15.69284
505.7556, 15.95233
506.2377, 16.20208
506.7198, 16.31894
507.2019, 16.34269
507.6840, 16.40194
508.1661, 16.52945
508.6483, 16.62613
509.1304, 16.63656
509.6125, 16.61805
510.0946, 16.64247
510.5767, 16.71772
511.0588, 16.78430
511.5410, 16.76618
512.0231, 16.66514
512.5052, 16.78200
512.9873, 17.33554
513.4694, 17.84970
513.9515, 18.26551
514.4337, 18.57911
514.9158, 18.76057
515.3979, 18.81256
515.8800, 18.82911
516.3621, 18.92499
516.8442, 19.10520
517.3264, 19.31775
517.8085, 19.63844
518.2906, 19.89111
518.7727, 19.95695
519.2548, 19.91966
519.7369, 19.92567
520.2191, 20.04128
520.7012, 20.17192
521.1833, 20.21784
521.6654, 20.18466
522.1475, 20.10866
522.6296, 19.98330
523.1118, 19.84748
523.5939, 19.75995
524.0760, 19.71117
524.5581, 19.61466
525.0402, 19.42021
525.5223, 19.20513
526.0045, 19.01519
526.4866, 18.85028
526.9687, 18.70496
527.4508, 18.57931
527.9329, 18.46162
528.4150, 18.32706
528.8972, 18.14755
529.3793, 18.02176
529.8614, 18.06932
530.3435, 18.05851
530.8256, 17.79984
531.3077, 17.37387
531.7899, 17.00403
532.2720, 16.82988
532.7541, 16.75957
533.2362, 16.54098
533.7183, 16.10290
534.2004, 15.71594
534.6826, 15.52518
535.1647, 15.31768
535.6468, 14.93472
536.1289, 14.40434
536.6110, 13.90245
537.0931, 13.57552
537.5753, 13.32247
538.0574, 12.93499
538.5395, 12.40425
539.0216, 11.91629
539.5037, 11.53869
539.9858, 11.25712
540.4680, 11.06885
540.9501, 10.99826
541.4322, 10.85985
541.9143, 10.50068
542.3964, 10.11603
542.8785, 9.919474
543.3607, 9.900647
543.8428, 9.908378
544.3249, 9.848232
544.8070, 9.740284
545.2891, 9.659205
545.7712, 9.654523
546.2534, 9.607635
546.7355, 9.512918
547.2176, 9.378495
547.6997, 9.181574
548.1818, 8.944289
548.6639, 8.731362
549.1461, 8.592179
549.6282, 8.520834
550.1103, 8.510779
550.5924, 8.604506
551.0745, 8.648890
551.5566, 8.532776
552.0388, 8.388562
552.5209, 8.332414
553.0030, 8.371188
553.4851, 8.398374
553.9672, 8.318154
554.4493, 8.198438
554.9315, 8.182808
555.4136, 8.279029
555.8957, 8.341949
556.3778, 8.277662
556.8599, 8.138642
557.3420, 8.074592
557.8242, 8.130938
558.3063, 8.141316
558.7884, 8.015232
559.2705, 7.869962
559.7526, 7.821383
560.2347, 7.866229
560.7169, 7.929037
561.1990, 7.959305
561.6811, 7.956801
562.1632, 7.915004
562.6453, 7.786163
563.1274, 7.701094
563.6096, 7.686340
564.0917, 7.704628
564.5738, 7.751307
565.0559, 7.811623
565.5380, 7.836498
566.0201, 7.753219
566.5023, 7.627804
566.9844, 7.666386
567.4665, 7.904279
567.9486, 8.074497
568.4307, 8.037999
568.9128, 7.913263
569.3950, 7.867932
569.8771, 7.908625
570.3592, 7.943063
570.8413, 7.958305
571.3234, 7.940974
571.8055, 7.844574
572.2877, 7.690943
572.7698, 7.590637
573.2519, 7.610909
573.7340, 7.703808
574.2161, 7.745139
574.6982, 7.670721
575.1804, 7.657660
575.6625, 7.793923
576.1446, 7.910403
576.6267, 7.882848
577.1088, 7.746370
577.5909, 7.607789
578.0731, 7.526291
578.5552, 7.493497
579.0373, 7.497291
579.5194, 7.543218
580.0015, 7.594955
580.4836, 7.649336
580.9658, 7.703621
581.4479, 7.767444
581.9300, 7.833011
582.4121, 7.866647
582.8942, 7.837536
583.3763, 7.786543
583.8585, 7.754920
584.3406, 7.736080
584.8227, 7.699224
585.3048, 7.629642
585.7869, 7.559716
586.2690, 7.536638
586.7512, 7.573117
587.2333, 7.596767
587.7154, 7.609023
588.1975, 7.608214
588.6796, 7.570939
589.1617, 7.526938
589.6439, 7.528194
590.1260, 7.592103
590.6081, 7.678572
591.0902, 7.736216
591.5723, 7.765001
592.0544, 7.759285
592.5366, 7.676774
593.0187, 7.622528
593.5008, 7.673715
593.9829, 7.771979
594.4650, 7.831256
594.9471, 7.828094
595.4293, 7.795685
595.9114, 7.750144
596.3935, 7.695043
596.8756, 7.620150
597.3577, 7.521158
597.8398, 7.483662
598.3220, 7.596803
598.8041, 7.829454
599.2862, 7.967350
599.7683, 7.967638
600.2504, 7.946304
600.7325, 7.894264
601.2147, 7.846251
601.6968, 7.826873
602.1789, 7.843162
602.6610, 7.907376
603.1431, 8.045465
603.6252, 8.222970
604.1074, 8.271552
604.5895, 8.133674
605.0716, 8.017224
605.5537, 7.963263
606.0358, 7.957942
606.5179, 8.020877
607.0001, 8.138861
607.4822, 8.223501
607.9643, 8.192684
608.4464, 8.131877
608.9285, 8.143956
609.4106, 8.222374
609.8928, 8.338243
610.3749, 8.496688
610.8570, 8.630977
611.3391, 8.629058
611.8212, 8.437648
612.3033, 8.317335
612.7855, 8.296254
613.2676, 8.312921
613.7497, 8.347071
614.2318, 8.398401
614.7139, 8.492255
615.1960, 8.633334
615.6782, 8.744883
616.1603, 8.681685
616.6424, 8.430161
617.1245, 8.328572
617.6066, 8.463839
618.0887, 8.605664
618.5709, 8.609610
619.0530, 8.562106
619.5351, 8.592749
620.0172, 8.743899
620.4993, 8.878988
620.9814, 8.933529
621.4636, 8.917686
621.9457, 8.816883
622.4278, 8.641378
622.9099, 8.495987
623.3920, 8.454012
623.8741, 8.485835
624.3563, 8.487576
624.8384, 8.407434
625.3205, 8.373757
625.8026, 8.435980
626.2847, 8.500934
626.7668, 8.493251
627.2490, 8.435307
627.7311, 8.402510
628.2132, 8.439654
628.6953, 8.513946
629.1774, 8.566881
629.6595, 8.596921
630.1417, 8.645356
630.6238, 8.745334
631.1059, 8.822971
631.5880, 8.796677
632.0701, 8.693479
632.5522, 8.590473
633.0344, 8.457409
633.5165, 8.376337
633.9986, 8.435042
634.4807, 8.554461
634.9628, 8.609724
635.4449, 8.578153
635.9271, 8.516994
636.4092, 8.473709
636.8913, 8.449640
637.3734, 8.467525
637.8555, 8.596258
638.3376, 8.653702
638.8198, 8.512824
639.3019, 8.373681
639.7840, 8.438322
640.2661, 8.678659
640.7482, 8.856578
641.2303, 8.775127
641.7125, 8.587792
642.1946, 8.546862
642.6767, 8.639860
643.1588, 8.719836
643.6409, 8.735936
644.1230, 8.732679
644.6052, 8.761435
645.0873, 8.825720
645.5694, 8.905559
646.0515, 9.049877
646.5336, 9.154571
647.0157, 9.133155
647.4979, 9.067541
647.9800, 9.100420
648.4621, 9.249937
648.9442, 9.357106
649.4263, 9.217889
649.9084, 8.871777
650.3906, 8.712215
650.8727, 8.792294
651.3548, 8.917566
651.8369, 9.052361
652.3190, 9.178980
652.8011, 9.273543
653.2833, 9.335310
653.7654, 9.399176
654.2475, 9.490199
654.7296, 9.580109
655.2117, 9.639905
655.6938, 9.675311
656.1760, 9.697907
656.6581, 9.710935
657.1402, 9.741883
657.6223, 9.835736
658.1044, 10.00625
658.5865, 10.15694
659.0687, 10.28508
659.5508, 10.39491
660.0329, 10.46868
660.5150, 10.53283
660.9971, 10.62199
661.4792, 10.74156
661.9614, 10.85836
662.4435, 10.95883
662.9256, 11.03324
663.4077, 11.02885
663.8898, 10.94469
664.3719, 10.92898
664.8541, 11.06862
665.3362, 11.28075
665.8183, 11.43062
666.3004, 11.52025
666.7825, 11.52808
667.2646, 11.37872
667.7468, 11.22532
668.2289, 11.14625
668.7110, 11.11399
669.1931, 11.09094
669.6752, 11.06061
670.1573, 10.99600
670.6395, 10.83724
671.1216, 10.59593
671.6037, 10.44376
672.0858, 10.41453
672.5679, 10.37214
673.0500, 10.23939
673.5322, 10.06877
674.0143, 9.948859
674.4964, 9.891757
674.9785, 9.797214
675.4606, 9.597065
675.9427, 9.381865
676.4249, 9.205500
676.9070, 9.077458
677.3891, 9.027622
677.8712, 9.065989
678.3533, 9.114319
678.8354, 9.047151
679.3176, 8.846721
679.7997, 8.708103
680.2818, 8.694613
680.7639, 8.645612
681.2460, 8.439095
681.7281, 8.207853
682.2103, 8.122631
682.6924, 8.209205
683.1745, 8.266514
683.6566, 8.111037
684.1387, 7.914554
684.6208, 7.919070
685.1030, 8.091739
685.5851, 8.249449
686.0672, 8.317087
686.5493, 8.320848
687.0314, 8.296788
687.5135, 8.241421
687.9957, 8.177544
688.4778, 8.079789
688.9599, 8.003515
689.4420, 7.959709
689.9241, 7.946115
690.4063, 7.975126
690.8884, 8.043534
691.3705, 8.095479
691.8526, 8.079615
692.3347, 8.023231
692.8168, 7.973546
693.2990, 7.931199
693.7811, 7.889103
694.2632, 7.838280
694.7453, 7.805591
695.2274, 7.835371
695.7095, 7.943234
696.1917, 8.019613
696.6738, 8.043856
697.1559, 8.064260
697.6380, 8.112051
698.1201, 8.155238
698.6022, 8.153535
699.0844, 8.102327
699.5665, 8.029267
700.0486, 7.930820
700.5307, 7.839575
701.0128, 7.855866
701.4949, 7.982871
701.9771, 8.136600
702.4592, 8.327900
702.9413, 8.459485
703.4234, 8.360813
703.9055, 8.013963
704.3876, 7.876372
704.8698, 8.178147
705.3519, 8.420068
705.8340, 8.379338
706.3161, 8.215385
706.7982, 8.083265
707.2803, 8.023767
707.7625, 8.043374
708.2446, 8.170865
708.7267, 8.353478
709.2088, 8.437756
709.6909, 8.416392
710.1730, 8.377346
710.6552, 8.343700
711.1373, 8.291353
711.6194, 8.141947
712.1015, 7.934644
712.5836, 7.904646
713.0657, 8.287281
713.5479, 8.575465
714.0300, 8.522181
714.5121, 8.338729
714.9942, 8.238616
715.4763, 8.241490
715.9584, 8.266934
716.4406, 8.262284
716.9227, 8.240121
717.4048, 8.229539
717.8869, 8.231456
718.3690, 8.234226
718.8511, 8.229943
719.3333, 8.237095
719.8154, 8.270614
720.2975, 8.325598
720.7796, 8.394254
721.2617, 8.493465
721.7438, 8.569505
722.2260, 8.585787
722.7081, 8.583909
723.1902, 8.610071
723.6723, 8.655729
724.1544, 8.678266
724.6365, 8.654595
725.1187, 8.611472
725.6008, 8.595322
726.0829, 8.608130
726.5650, 8.615009
727.0471, 8.589569
727.5292, 8.611859
728.0114, 8.785594
728.4935, 9.004856
728.9756, 9.097432
729.4577, 9.033777
729.9398, 8.958381
730.4219, 8.893726
730.9041, 8.849088
731.3862, 8.823269
731.8683, 8.824467
732.3504, 8.890387
732.8325, 9.027942
733.3146, 9.151548
733.7968, 9.138768
734.2789, 9.001032
734.7610, 8.915702
735.2431, 8.880716
735.7252, 8.906358
736.2073, 9.022478
736.6895, 9.180472
737.1716, 9.351296
737.6537, 9.531766
738.1358, 9.623144
738.6179, 9.511369
739.1000, 9.407449
739.5822, 9.437729
740.0643, 9.541497
740.5464, 9.646420
741.0285, 9.728816
741.5106, 9.773596
741.9927, 9.761397
742.4749, 9.711813
742.9570, 9.681456
743.4391, 9.664804
743.9212, 9.702816
744.4033, 9.811298
744.8854, 9.964522
745.3676, 10.17678
745.8497, 10.42003
746.3318, 10.59782
746.8139, 10.70808
747.2960, 10.74215
747.7781, 10.62411
748.2603, 10.48261
748.7424, 10.44327
749.2245, 10.49507
749.7066, 10.55306
750.1887, 10.57087
750.6708, 10.60627
751.1530, 10.77603
751.6351, 11.07465
752.1172, 11.33081
752.5993, 11.54667
753.0814, 11.66821
753.5635, 11.60117
754.0457, 11.46301
754.5278, 11.50256
755.0099, 11.76087
755.4920, 11.97811
755.9741, 12.09205
756.4562, 12.18949
756.9384, 12.33259
757.4205, 12.48448
757.9026, 12.54541
758.3847, 12.51215
758.8668, 12.55635
759.3489, 12.90972
759.8311, 13.43154
760.3132, 13.67494
760.7953, 13.63301
761.2774, 13.58238
761.7595, 13.58044
762.2416, 13.65677
762.7238, 13.87920
763.2059, 14.24053
763.6880, 14.46388
764.1701, 14.42483
764.6522, 14.42906
765.1343, 14.52999
765.6165, 14.69203
766.0986, 14.91967
766.5807, 15.18147
767.0628, 15.40051
767.5449, 15.52907
768.0270, 15.63494
768.5092, 15.80052
768.9913, 16.01056
769.4734, 16.21001
769.9555, 16.39165
770.4376, 16.59446
770.9197, 16.85618
771.4019, 17.12273
771.8840, 17.25537
772.3661, 17.14840
772.8482, 17.21332
773.3303, 17.61935
773.8124, 17.99533
774.2946, 18.17835
774.7767, 18.28261
775.2588, 18.45667
775.7409, 18.72425
776.2230, 18.98678
776.7051, 19.13611
777.1873, 19.28428
777.6694, 19.62630
778.1515, 20.08325
778.6336, 20.39342
779.1157, 20.48801
779.5978, 20.51442
780.0800, 20.61118
780.5621, 20.76804
781.0442, 20.92222
781.5263, 21.07365
782.0084, 21.22130
782.4905, 21.34521
782.9727, 21.48665
783.4548, 21.67638
783.9369, 21.90243
784.4190, 22.14892
784.9011, 22.46650
785.3832, 22.66825
785.8654, 22.59945
786.3475, 22.41800
786.8296, 22.26865
787.3117, 22.16076
787.7938, 22.08067
788.2759, 22.02151
788.7581, 21.93623
789.2402, 21.75004
789.7223, 21.46675
790.2044, 21.17644
790.6865, 20.87220
791.1686, 20.58847
791.6508, 20.34020
792.1329, 20.11738
792.6150, 19.89674
793.0971, 19.67854
793.5792, 19.52332
794.0613, 19.51097
794.5435, 19.46835
795.0256, 19.30572
795.5077, 19.11196
795.9898, 18.95733
796.4719, 18.85646
796.9540, 18.80527
797.4362, 18.79758
797.9183, 18.85000
798.4004, 19.04965
798.8825, 19.33566
799.3646, 19.42728
799.8467, 19.28635
800.3289, 19.16555
800.8110, 19.20179
801.2931, 19.36630
801.7752, 19.60123
802.2573, 19.91356
802.7394, 20.26807
803.2216, 20.73386
803.7037, 21.16337
804.1858, 21.50939
804.6679, 21.80474
805.1500, 22.03775
805.6321, 22.22864
806.1143, 22.54980
806.5964, 23.21190
807.0785, 23.91299
807.5606, 24.39425
808.0427, 24.73381
808.5248, 25.05694
809.0070, 25.39809
809.4891, 25.77518
809.9712, 26.20366
810.4533, 26.67128
810.9354, 27.12637
811.4175, 27.55110
811.8997, 28.12724
812.3818, 28.95892
812.8639, 29.75799
813.3460, 30.37860
813.8281, 30.85467
814.3102, 31.24622
814.7924, 31.52334
815.2745, 31.84673
815.7566, 32.33792
816.2387, 32.77390
816.7208, 32.97412
817.2029, 33.07949
817.6851, 33.31301
818.1672, 33.69454
818.6493, 34.02427
819.1314, 34.15363
819.6135, 34.14745
820.0956, 34.15245
820.5778, 34.12618
821.0599, 33.83437
821.5420, 33.22396
822.0241, 32.53277
822.5062, 31.92504
822.9883, 31.38290
823.4705, 30.85757
823.9526, 30.43286
824.4347, 29.82209
824.9168, 28.86402
825.3989, 27.91133
825.8810, 27.11472
826.3632, 26.39918
826.8453, 25.65450
827.3274, 24.86486
827.8095, 24.15024
828.2916, 23.58007
828.7737, 23.07559
829.2559, 22.61786
829.7380, 22.17012
830.2201, 21.62874
830.7022, 21.00919
831.1843, 20.50972
831.6664, 20.29477
832.1486, 20.26105
832.6307, 20.23013
833.1128, 20.19581
833.5949, 19.97713
834.0770, 19.49697
834.5591, 19.10978
835.0413, 19.07096
835.5233, 19.23480
836.0054, 19.25037
836.4875, 19.02763
836.9697, 18.91485
837.4518, 18.98861
837.9339, 19.07102
838.4160, 19.11720
838.8981, 19.13464
839.3802, 19.09724
839.8624, 19.02357
840.3445, 19.04722
840.8266, 19.30554
841.3087, 19.60322
841.7908, 19.76807
842.2729, 19.86484
842.7551, 20.00157
843.2372, 20.18942
843.7193, 20.38551
844.2014, 20.56497
844.6835, 20.72864
845.1656, 20.87339
845.6478, 20.99982
846.1299, 21.13783
846.6120, 21.28391
847.0941, 21.46031
847.5762, 21.66857
848.0583, 21.92520
848.5405, 22.27888
849.0226, 22.75060
849.5047, 23.10229
849.9868, 23.24758
850.4689, 23.38897
850.9510, 23.53524
851.4332, 23.72266
851.9153, 24.00114
852.3974, 24.34562
852.8795, 24.67879
853.3616, 24.96375
853.8438, 25.25132
854.3259, 25.61023
854.8080, 25.97749
855.2901, 26.25281
855.7722, 26.44814
856.2543, 26.63725
856.7365, 26.85052
857.2186, 27.08135
857.7007, 27.32948
858.1828, 27.58969
858.6649, 27.80798
859.1470, 27.97161
859.6292, 28.18620
860.1113, 28.50260
860.5934, 28.82078
861.0755, 29.03610
861.5576, 29.17739
862.0397, 29.40005
862.5219, 29.81831
863.0040, 30.12360
863.4861, 30.16268
863.9682, 30.23557
864.4503, 30.54584
864.9324, 30.96543
865.4146, 31.28739
865.8967, 31.46964
866.3788, 31.66703
866.8609, 32.05494
867.3430, 32.41778
867.8251, 32.50032
868.3073, 32.41738
868.7894, 32.36201
869.2715, 32.38762
869.7536, 32.54699
870.2357, 32.90404
870.7178, 33.30116
871.2000, 33.33487
871.6821, 33.02202
872.1642, 33.04820
872.6463, 33.55395
873.1284, 33.89060
873.6105, 33.70448
874.0927, 33.26957
874.5748, 33.01523
875.0569, 32.97674
875.5390, 32.79545
876.0211, 32.37910
876.5032, 31.93860
876.9854, 31.51429
877.4675, 31.06624
877.9496, 30.49210
878.4317, 29.87208
878.9138, 29.47038
879.3959, 29.45356
879.8781, 29.38263
880.3602, 28.98688
880.8423, 28.47035
881.3244, 27.97211
881.8065, 27.52679
882.2886, 27.19171
882.7708, 26.97153
883.2529, 26.74059
883.7350, 26.37589
884.2171, 25.92402
884.6992, 25.48265
885.1813, 25.05010
885.6635, 24.62647
886.1456, 24.20882
886.6277, 23.84364
887.1098, 23.58512
887.5919, 23.35982
888.0740, 22.96742
888.5562, 22.34268
889.0383, 21.80573
889.5204, 21.39973
890.0025, 21.01215
890.4846, 20.54859
890.9667, 20.12418
891.4489, 19.92784
891.9310, 19.93072
892.4131, 19.75138
892.8952, 19.18114
893.3773, 18.62653
893.8594, 18.20962
894.3416, 17.85739
894.8237, 17.51161
895.3058, 17.17667
895.7879, 16.87457
896.2700, 16.61127
896.7521, 16.39905
897.2343, 16.27811
897.7164, 16.19284
898.1985, 16.07582
898.6806, 15.92461
899.1627, 15.72856
899.6448, 15.49098
900.1270, 15.24337
900.6091, 15.00698
901.0912, 14.79954
901.5733, 14.68983
902.0554, 14.68039
902.5375, 14.60597
903.0197, 14.42504
903.5018, 14.31023
903.9839, 14.36070
904.4660, 14.50228
904.9481, 14.63148
905.4302, 14.75541
905.9124, 14.79542
906.3945, 14.65962
906.8766, 14.57291
907.3587, 14.64482
907.8408, 14.70786
908.3229, 14.59291
908.8051, 14.38180
909.2872, 14.30551
909.7693, 14.44898
910.2514, 14.59427
910.7335, 14.68100
911.2156, 14.72112
911.6978, 14.68388
912.1799, 14.62315
912.6620, 14.61585
913.1441, 14.67736
913.6262, 14.77813
914.1083, 14.89656
914.5905, 15.04840
915.0726, 15.31143
915.5547, 15.61082
916.0368, 15.74056
916.5189, 15.69969
917.0010, 15.64446
917.4832, 15.65184
917.9653, 15.69486
918.4474, 15.72950
918.9295, 15.76092
919.4116, 15.86549
919.8937, 16.06134
920.3759, 16.18515
920.8580, 16.16845
921.3401, 16.14546
921.8222, 16.21829
922.3043, 16.37667
922.7864, 16.58756
923.2686, 16.90619
923.7507, 17.15489
924.2328, 17.37656
924.7149, 17.47378
925.1970, 17.30563
925.6791, 17.06823
926.1613, 16.96822
926.6434, 17.01050
927.1255, 17.09632
927.6076, 17.36572
928.0897, 17.45985
928.5718, 17.06643
929.0540, 16.59655
929.5361, 16.40168
930.0182, 16.42496
930.5003, 16.49708
930.9824, 16.56063
931.4645, 16.55473
931.9467, 16.34661
932.4288, 16.10962
932.9109, 16.05874
933.3930, 16.15237
933.8751, 16.31493
934.3572, 16.51720
934.8394, 16.70672
935.3215, 16.85147
935.8036, 16.95520
936.2857, 16.98359
936.7678, 16.96293
937.2499, 17.12965
937.7321, 17.49916
938.2142, 17.74198
938.6963, 17.71901
939.1784, 17.65977
939.6605, 17.80572
940.1426, 18.12663
940.6248, 18.44296
941.1069, 18.76176
941.5890, 19.05460
942.0711, 19.30980
942.5532, 19.55648
943.0353, 19.80243
943.5175, 20.05443
943.9996, 20.33068
944.4817, 20.63630
944.9638, 20.90691
945.4459, 21.17535
945.9280, 21.36054
946.4102, 21.37516
946.8923, 21.36205
947.3744, 21.47443
947.8565, 21.63155
948.3386, 21.61307
948.8207, 21.33250
949.3029, 21.11433
949.7850, 21.12359
950.2671, 21.23001
950.7492, 21.40023
951.2313, 21.57278
951.7134, 21.63087
952.1956, 21.59989
952.6777, 21.66378
953.1598, 21.94869
953.6419, 22.25621
954.1240, 22.35414
954.6061, 22.33354
955.0883, 22.38678
955.5704, 22.48058
956.0525, 22.42344
956.5346, 22.16587
957.0167, 21.88577
957.4988, 21.74125
957.9810, 21.70340
958.4631, 21.69348
958.9452, 21.71519
959.4273, 21.83691
959.9094, 22.07232
960.3915, 22.29517
960.8737, 22.45338
961.3558, 22.52754
961.8379, 22.46424
962.3200, 22.27332
962.8021, 22.26222
963.2842, 22.52915
963.7664, 22.66220
964.2485, 22.58338
964.7306, 22.37567
965.2127, 22.07370
965.6948, 21.68855
966.1769, 21.24543
966.6591, 20.73256
967.1412, 20.20695
967.6233, 19.61362
968.1054, 19.08535
968.5875, 18.70956
969.0696, 18.36097
969.5518, 17.98393
970.0339, 17.55155
970.5160, 16.97001
970.9981, 16.14513
971.4802, 15.43259
971.9623, 14.97368
972.4445, 14.61715
972.9266, 14.37057
973.4087, 14.11830
973.8908, 13.69639
974.3729, 13.12608
974.8550, 12.58934
975.3372, 12.16935
975.8193, 11.79223
976.3014, 11.39328
976.7835, 11.01752
977.2656, 10.71850
977.7477, 10.48209
978.2299, 10.27915
978.7120, 10.09672
979.1941, 9.912536
979.6762, 9.712077
980.1583, 9.495283
980.6404, 9.253275
981.1226, 8.997585
981.6047, 8.737286
982.0868, 8.488214
982.5689, 8.325013
983.0510, 8.276429
983.5331, 8.282869
984.0153, 8.294453
984.4974, 8.293531
984.9795, 8.221119
985.4616, 8.079467
985.9437, 7.863647
986.4258, 7.565742
986.9080, 7.399968
987.3901, 7.498215
987.8722, 7.709500
988.3543, 7.806777
988.8364, 7.792734
989.3185, 7.727962
989.8007, 7.598759
990.2828, 7.477543
990.7649, 7.363190
991.2470, 7.303743
991.7291, 7.360579
992.2112, 7.460948
992.6934, 7.438481
993.1755, 7.262608
993.6576, 7.132166
994.1397, 7.023180
994.6218, 7.007764
995.1039, 7.208689
995.5861, 7.393800
996.0682, 7.348788
996.5503, 7.158411
997.0324, 7.056560
997.5145, 7.079946
997.9966, 7.087463
998.4788, 7.058829
998.9609, 7.027713
999.4430, 7.010133
999.9251, 6.990211
1000.407, 6.939713
1000.889, 6.874003
1001.371, 6.848713
1001.854, 6.887815
1002.336, 6.926566
1002.818, 6.961699
1003.300, 6.972518
1003.782, 6.928747
1004.264, 6.866190
1004.746, 6.832108
1005.228, 6.823130
1005.711, 6.795291
1006.193, 6.719235
1006.675, 6.660185
1007.157, 6.651654
1007.639, 6.682909
1008.121, 6.779032
1008.603, 6.892343
1009.085, 6.950267
1009.567, 6.940741
1010.050, 6.882577
1010.532, 6.767127
1011.014, 6.663814
1011.496, 6.639699
1011.978, 6.668107
1012.460, 6.735648
1012.942, 6.818013
1013.424, 6.867445
1013.906, 6.871042
1014.389, 6.837862
1014.871, 6.762985
1015.353, 6.686786
1015.835, 6.680953
1016.317, 6.713912
1016.799, 6.701638
1017.281, 6.652748
1017.763, 6.633729
1018.246, 6.665195
1018.728, 6.720922
1019.210, 6.786689
1019.692, 6.837697
1020.174, 6.792068
1020.656, 6.679609
1021.138, 6.658080
1021.620, 6.733994
1022.102, 6.826976
1022.585, 6.907265
1023.067, 6.946740
1023.549, 6.907606
1024.031, 6.818549
1024.513, 6.766641
1024.995, 6.752003
1025.477, 6.785856
1025.959, 6.874104
1026.442, 6.934860
1026.924, 6.932475
1027.406, 6.892356
1027.888, 6.834000
1028.370, 6.770339
1028.852, 6.779979
1029.334, 6.874776
1029.816, 6.964357
1030.298, 7.053747
1030.781, 7.078563
1031.263, 6.998287
1031.745, 6.868063
1032.227, 6.748375
1032.709, 6.641422
1033.191, 6.551158
1033.673, 6.445989
1034.155, 6.490736
1034.638, 6.802600
1035.120, 7.012485
1035.602, 6.907082
1036.084, 6.685292
1036.566, 6.597988
1037.048, 6.636294
1037.530, 6.659419
1038.012, 6.668228
1038.495, 6.660058
1038.977, 6.631940
1039.459, 6.591029
1039.941, 6.535904
1040.423, 6.474206
1040.905, 6.421180
1041.387, 6.375491
1041.869, 6.297754
1042.351, 6.104514
1042.833, 6.019042
1043.316, 6.115384
1043.798, 6.244444
1044.280, 6.401101
1044.762, 6.520941
1045.244, 6.484002
1045.726, 6.304898
1046.208, 6.234582
1046.690, 6.395319
1047.173, 6.492106
1047.655, 6.479293
1048.137, 6.425173
1048.619, 6.291272
1049.101, 6.177860
1049.583, 6.254544
1050.065, 6.495471
1050.547, 6.589478
1051.030, 6.366059
1051.512, 6.209556
1051.994, 6.217209
1052.476, 6.254446
1052.958, 6.265870
1053.440, 6.262953
1053.922, 6.259449
1054.404, 6.257380
1054.886, 6.260356
1055.369, 6.273404
1055.851, 6.283277
1056.333, 6.281186
1056.815, 6.281686
1057.297, 6.287400
1057.779, 6.303366
1058.261, 6.342123
1058.743, 6.397964
1059.225, 6.441513
1059.708, 6.465025
1060.190, 6.476722
1060.672, 6.462449
1061.154, 6.456003
1061.636, 6.494292
1062.118, 6.538223
1062.600, 6.554250
1063.082, 6.533464
1063.565, 6.450051
1064.047, 6.249085
1064.529, 6.128550
1065.011, 6.231362
1065.493, 6.352521
1065.975, 6.355910
1066.457, 6.326504
1066.939, 6.387436
1067.422, 6.509798
1067.904, 6.558205
1068.386, 6.485572
1068.868, 6.380205
1069.350, 6.231389
1069.832, 6.114431
1070.314, 6.092473
1070.796, 6.110744
1071.278, 6.091420
1071.760, 6.059939
1072.243, 6.128073
1072.725, 6.349298
1073.207, 6.498012
1073.689, 6.414763
1074.171, 6.304680
1074.653, 6.264510
1075.135, 6.272497
1075.617, 6.335549
1076.100, 6.416801
1076.582, 6.430056
1077.064, 6.349540
1077.546, 6.279225
1078.028, 6.257174
1078.510, 6.267289
1078.992, 6.342009
1079.474, 6.409221
1079.957, 6.371600
1080.439, 6.282021
1080.921, 6.255246
1081.403, 6.316489
1081.885, 6.412199
1082.367, 6.578073
1082.849, 6.696818
1083.331, 6.691765
1083.813, 6.629465
1084.296, 6.533969
1084.778, 6.438271
1085.260, 6.398001
1085.742, 6.416394
1086.224, 6.413301
1086.706, 6.356081
1087.188, 6.271627
1087.670, 6.129836
1088.152, 6.007510
1088.635, 5.992510
1089.117, 6.019717
1089.599, 5.977912
1090.081, 5.867704
1090.563, 5.793934
1091.045, 5.796814
1091.527, 5.832754
1092.009, 5.891085
1092.491, 5.968536
1092.974, 6.123515
1093.456, 6.255671
1093.938, 6.205431
1094.420, 6.010859
1094.902, 5.881736
1095.384, 5.892365
1095.866, 5.915126
1096.348, 5.902883
1096.831, 5.890584
1097.313, 5.883211
1097.795, 5.895888
1098.277, 5.956138
1098.759, 6.047142
1099.241, 6.127659
1099.723, 6.195509
1100.205, 6.214761
1100.688, 6.129599
1101.170, 6.052020
1101.652, 6.021338
1102.134, 6.022720
1102.616, 6.074518
1103.098, 6.137287
1103.580, 6.121010
1104.062, 6.007666
1104.544, 5.950099
1105.026, 6.031907
1105.509, 6.106147
1105.991, 6.159616
1106.473, 6.164101
1106.955, 6.065765
1107.437, 5.926758
1107.919, 5.822657
1108.401, 5.762384
1108.883, 5.768064
1109.366, 5.922271
1109.848, 6.020763
1110.330, 6.013822
1110.812, 5.971235
1111.294, 5.921132
1111.776, 5.854415
1112.258, 5.722113
1112.740, 5.553329
1113.223, 5.510709
1113.705, 5.679018
1114.187, 5.807812
1114.669, 5.888286
1115.151, 5.922715
1115.633, 5.870627
1116.115, 5.810539
1116.597, 5.815697
1117.079, 5.859077
1117.562, 5.864172
1118.044, 5.815083
1118.526, 5.797523
1119.008, 5.847844
1119.490, 5.866664
1119.972, 5.827074
1120.454, 5.764650
1120.936, 5.685115
1121.418, 5.607283
1121.901, 5.558585
1122.383, 5.538582
1122.865, 5.574759
1123.347, 5.721616
1123.829, 5.775515
1124.311, 5.665436
1124.793, 5.580031
1125.275, 5.618150
1125.758, 5.690010
1126.240, 5.691491
1126.722, 5.635377
1127.204, 5.588409
1127.686, 5.547816
1128.168, 5.533771
1128.650, 5.555405
1129.132, 5.563262
1129.615, 5.531931
1130.097, 5.526081
1130.579, 5.610332
1131.061, 5.733273
1131.543, 5.766153
1132.025, 5.707962
1132.507, 5.664587
1132.989, 5.638248
1133.471, 5.572081
1133.953, 5.447529
1134.436, 5.382583
1134.918, 5.450703
1135.400, 5.569895
1135.882, 5.624718
1136.364, 5.630448
1136.846, 5.645514
1137.328, 5.671731
1137.810, 5.752409
1138.293, 5.881032
1138.775, 5.906603
1139.257, 5.773367
1139.739, 5.608888
1140.221, 5.515802
1140.703, 5.504287
1141.185, 5.656442
1141.667, 5.890312
1142.150, 5.935296
1142.632, 5.826377
1143.114, 5.755805
1143.596, 5.763331
1144.078, 5.762932
1144.560, 5.700091
1145.042, 5.648744
1145.524, 5.734317
1146.006, 5.857827
1146.489, 5.848138
1146.971, 5.764787
1147.453, 5.738164
1147.935, 5.761117
1148.417, 5.732055
1148.899, 5.620204
1149.381, 5.540325
1149.863, 5.607927
1150.345, 5.698184
1150.828, 5.663504
1151.310, 5.618275
1151.792, 5.746452
1152.274, 5.941955
1152.756, 5.975834
1153.238, 5.837515
1153.720, 5.710326
1154.202, 5.643625
1154.685, 5.680224
1155.167, 6.005060
1155.649, 6.252366
1156.131, 6.087306
1156.613, 5.799623
1157.095, 5.699126
1157.577, 5.757026
1158.059, 5.818962
1158.542, 5.860321
1159.024, 5.877030
1159.506, 5.856039
1159.988, 5.827487
1160.470, 5.772574
1160.952, 5.742072
1161.434, 5.794436
1161.916, 5.874753
1162.398, 5.900424
1162.880, 5.872208
1163.363, 5.854784
1163.845, 5.863286
1164.327, 5.853277
1164.809, 5.784205
1165.291, 5.769485
1165.773, 5.884730
1166.255, 6.005820
1166.737, 6.021882
1167.220, 5.975545
1167.702, 5.976318
1168.184, 6.030383
1168.666, 6.070904
1169.148, 6.106927
1169.630, 6.076957
1170.112, 5.954929
1170.594, 5.842782
1171.077, 5.791067
1171.559, 5.776036
1172.041, 5.760824
1172.523, 5.767299
1173.005, 5.917180
1173.487, 6.190127
1173.969, 6.317111
1174.451, 6.291047
1174.933, 6.264499
1175.416, 6.279340
1175.898, 6.264451
1176.380, 6.163904
1176.862, 6.061925
1177.344, 6.121931
1177.826, 6.251674
1178.308, 6.209775
1178.790, 6.069359
1179.272, 6.009857
1179.755, 6.050734
1180.237, 6.170729
1180.719, 6.351773
1181.201, 6.487515
1181.683, 6.494558
1182.165, 6.433415
1182.647, 6.302742
1183.129, 6.188477
1183.612, 6.210696
1184.094, 6.308297
1184.576, 6.398751
1185.058, 6.452342
1185.540, 6.412475
1186.022, 6.224938
1186.504, 6.127221
1186.986, 6.321176
1187.469, 6.504585
1187.951, 6.511911
1188.433, 6.465872
1188.915, 6.471829
1189.397, 6.497998
1189.879, 6.455123
1190.361, 6.338091
1190.843, 6.306343
1191.325, 6.477851
1191.807, 6.564203
1192.290, 6.468065
1192.772, 6.414685
1193.254, 6.530340
1193.736, 6.642426
1194.218, 6.575665
1194.700, 6.414063
1195.182, 6.385561
1195.664, 6.506968
1196.147, 6.548198
1196.629, 6.496524
1197.111, 6.419409
1197.593, 6.313699
1198.075, 6.274182
1198.557, 6.349191
1199.039, 6.495349
1199.521, 6.685196
1200.004, 6.866259
1200.486, 6.860808
1200.968, 6.713243
1201.450, 6.664260
1201.932, 6.701603
1202.414, 6.687313
1202.896, 6.601874
1203.378, 6.531100
1203.860, 6.521320
1204.343, 6.570657
1204.825, 6.736182
1205.307, 6.902794
1205.789, 6.896994
1206.271, 6.803549
1206.753, 6.711841
1207.235, 6.653520
1207.717, 6.677373
1208.199, 6.780643
1208.682, 6.891103
1209.164, 7.000611
1209.646, 7.041611
1210.128, 6.898685
1210.610, 6.776422
1211.092, 6.836232
1211.574, 6.936482
1212.056, 6.907594
1212.539, 6.823244
1213.021, 6.889054
1213.503, 7.139287
1213.985, 7.263621
1214.467, 7.132005
1214.949, 7.055620
1215.431, 7.099055
1215.913, 7.112435
1216.396, 7.005203
1216.878, 6.911201
1217.360, 6.963420
1217.842, 7.104037
1218.324, 7.181458
1218.806, 7.193553
1219.288, 7.226738
1219.770, 7.282653
1220.252, 7.325988
1220.734, 7.351104
1221.217, 7.371711
1221.699, 7.393454
1222.181, 7.428048
1222.663, 7.493350
1223.145, 7.558771
1223.627, 7.557242
1224.109, 7.516488
1224.591, 7.500709
1225.074, 7.502829
1225.556, 7.503984
1226.038, 7.494540
1226.520, 7.439438
1227.002, 7.326713
1227.484, 7.270981
1227.966, 7.401041
1228.448, 7.554667
1228.931, 7.665286
1229.413, 7.701306
1229.895, 7.585577
1230.377, 7.408698
1230.859, 7.266907
1231.341, 7.183774
1231.823, 7.196129
1232.305, 7.338404
1232.787, 7.471354
1233.270, 7.624537
1233.752, 7.693459
1234.234, 7.584666
1234.716, 7.497468
1235.198, 7.556928
1235.680, 7.658406
1236.162, 7.661159
1236.644, 7.596437
1237.126, 7.629622
1237.609, 7.778378
1238.091, 7.826841
1238.573, 7.762871
1239.055, 7.759903
1239.537, 7.856125
1240.019, 7.914839
1240.501, 7.859343
1240.983, 7.792366
1241.466, 7.848201
1241.948, 7.947618
1242.430, 7.916028
1242.912, 7.825915
1243.394, 7.843835
1243.876, 7.928998
1244.358, 7.938255
1244.840, 7.873094
1245.323, 7.874687
1245.805, 8.008616
1246.287, 8.126624
1246.769, 8.130525
1247.251, 8.108476
1247.733, 8.103724
1248.215, 8.099134
1248.697, 8.100910
1249.179, 8.081082
1249.661, 7.952850
1250.144, 7.752697
1250.626, 7.734652
1251.108, 8.009118
1251.590, 8.151829
1252.072, 8.098932
1252.554, 8.061276
1253.036, 8.092057
1253.518, 8.093495
1254.001, 7.994665
1254.483, 7.908815
1254.965, 7.982750
1255.447, 8.156558
1255.929, 8.239905
1256.411, 8.247860
1256.893, 8.303221
1257.375, 8.389608
1257.858, 8.354178
1258.340, 8.205304
1258.822, 8.182995
1259.304, 8.388691
1259.786, 8.605200
1260.268, 8.666529
1260.750, 8.629885
1261.232, 8.479302
1261.714, 8.327855
1262.197, 8.305249
1262.679, 8.352901
1263.161, 8.385450
1263.643, 8.400395
1264.125, 8.442216
1264.607, 8.529902
1265.089, 8.550396
1265.571, 8.370493
1266.053, 8.299886
1266.536, 8.499339
1267.018, 8.639920
1267.500, 8.551204
1267.982, 8.426337
1268.464, 8.444242
1268.946, 8.549959
1269.428, 8.609884
1269.910, 8.626355
1270.393, 8.669688
1270.875, 8.737339
1271.357, 8.761505
1271.839, 8.732268
1272.321, 8.591308
1272.803, 8.339101
1273.285, 8.257190
1273.767, 8.584894
1274.250, 8.954736
1274.732, 8.857894
1275.214, 8.644490
1275.696, 8.801743
1276.178, 9.066628
1276.660, 9.039217
1277.142, 8.830418
1277.624, 8.748775
1278.106, 8.833186
1278.589, 8.895814
1279.071, 8.864127
1279.553, 8.864885
1280.035, 8.936158
1280.517, 9.022300
1280.999, 9.124818
1281.481, 9.212492
1281.963, 9.255843
1282.445, 9.293683
1282.928, 9.391644
1283.410, 9.519513
1283.892, 9.538301
1284.374, 9.448725
1284.856, 9.279092
1285.338, 9.046699
1285.820, 8.950657
1286.302, 9.018273
1286.785, 9.143784
1287.267, 9.275299
1287.749, 9.364966
1288.231, 9.379272
##END=



