##NAMES=Baddeleyite
##RRUFFID=R100171
##IDEAL CHEMISTRY=Zr^4+^O_2_
##LOCALITY=Palabora Mine, Phalaborwa, Transvaal, Republic of South Africa 
##OWNER=RRUFF
##SOURCE=Mauricio Ibanez-Mejia
##DESCRIPTION=Fragments of black prismatic crystals
##STATUS=The identification of this mineral has been confirmed by single-crystal X-ray diffraction.
##URL=rruff.info/R100171
137.3708, 405.2524
137.8529, 405.1633
138.3350, 405.9919
138.8171, 406.7660
139.2992, 407.1542
139.7813, 407.2902
140.2635, 407.5713
140.7456, 408.4075
141.2277, 409.9545
141.7098, 410.5014
142.1919, 409.4697
142.6740, 408.1502
143.1561, 406.9622
143.6383, 406.0458
144.1204, 405.6751
144.6025, 406.2335
145.0846, 407.9064
145.5667, 409.5193
146.0488, 410.8500
146.5310, 412.1823
147.0131, 413.9604
147.4952, 416.3594
147.9773, 418.7118
148.4594, 419.9112
148.9415, 420.1819
149.4237, 420.9585
149.9058, 422.8838
150.3879, 425.7198
150.8700, 428.7133
151.3521, 431.5128
151.8342, 434.9057
152.3164, 439.3385
152.7985, 444.7627
153.2806, 451.0117
153.7627, 457.9687
154.2448, 465.6463
154.7269, 473.9485
155.2091, 482.2067
155.6912, 491.7082
156.1733, 503.9744
156.6554, 518.8313
157.1375, 533.8849
157.6196, 546.3718
158.1018, 555.8654
158.5839, 563.7910
159.0660, 570.2405
159.5481, 575.4203
160.0302, 578.9081
160.5123, 580.7842
160.9945, 582.0098
161.4766, 584.2194
161.9587, 587.7179
162.4408, 591.9826
162.9229, 597.1261
163.4050, 602.8873
163.8871, 608.8741
164.3693, 614.9672
164.8514, 621.4971
165.3335, 629.3547
165.8156, 639.4769
166.2977, 649.5763
166.7798, 658.8400
167.2620, 668.0859
167.7441, 678.4537
168.2262, 690.4018
168.7083, 703.8531
169.1904, 718.6940
169.6725, 735.7538
170.1547, 752.3750
170.6368, 766.8146
171.1189, 779.7451
171.6010, 793.3985
172.0831, 808.6252
172.5652, 825.4233
173.0474, 843.2880
173.5295, 861.6855
174.0116, 882.0214
174.4937, 906.7386
174.9758, 935.8730
175.4579, 963.3497
175.9401, 989.6918
176.4222, 1010.984
176.9043, 1023.582
177.3864, 1027.584
177.8685, 1020.953
178.3506, 999.1013
178.8328, 958.6920
179.3149, 914.3534
179.7970, 865.9515
180.2791, 818.2843
180.7612, 775.6676
181.2433, 739.3010
181.7255, 709.0574
182.2076, 684.8091
182.6897, 668.1227
183.1718, 655.3720
183.6539, 645.3453
184.1360, 638.1033
184.6181, 633.9145
185.1003, 632.9330
185.5824, 634.8622
186.0645, 638.6411
186.5466, 644.5971
187.0287, 652.4020
187.5108, 663.7476
187.9930, 676.3565
188.4751, 688.1625
188.9572, 698.1475
189.4393, 705.6582
189.9214, 706.5045
190.4035, 700.9813
190.8857, 688.5490
191.3678, 666.1809
191.8499, 637.0055
192.3320, 605.2665
192.8141, 572.9031
193.2962, 540.5897
193.7784, 513.5822
194.2605, 491.5373
194.7426, 473.5422
195.2247, 460.2811
195.7068, 450.9780
196.1889, 443.5690
196.6711, 436.9892
197.1532, 431.3477
197.6353, 426.7212
198.1174, 423.2357
198.5995, 420.4879
199.0816, 418.2663
199.5638, 416.5740
200.0459, 415.4919
200.5280, 415.1895
201.0101, 415.5600
201.4922, 416.1270
201.9743, 417.3799
202.4565, 418.3228
202.9386, 417.8247
203.4207, 415.8432
203.9028, 413.9843
204.3849, 413.2150
204.8670, 413.0921
205.3492, 413.0005
205.8313, 412.8026
206.3134, 412.6397
206.7955, 412.7209
207.2776, 413.0968
207.7597, 413.4833
208.2419, 413.7615
208.7240, 413.9790
209.2061, 414.1281
209.6882, 414.1409
210.1703, 414.2147
210.6524, 414.7568
211.1346, 415.9702
211.6167, 417.1181
212.0988, 417.6791
212.5809, 418.1802
213.0630, 419.1847
213.5451, 420.9464
214.0273, 423.1741
214.5094, 425.1913
214.9915, 426.7814
215.4736, 428.5641
215.9557, 430.5659
216.4378, 432.8214
216.9200, 435.3285
217.4021, 438.0652
217.8842, 441.1526
218.3663, 445.0576
218.8484, 451.6880
219.3305, 456.2229
219.8127, 457.5306
220.2948, 456.9204
220.7769, 455.8347
221.2590, 454.9311
221.7411, 453.7461
222.2232, 450.8960
222.7054, 445.0510
223.1875, 438.9250
223.6696, 431.9868
224.1517, 425.0819
224.6338, 419.2593
225.1159, 414.9660
225.5980, 411.7985
226.0802, 408.6027
226.5623, 404.7990
227.0444, 401.6904
227.5265, 399.9170
228.0086, 398.7406
228.4907, 397.2090
228.9729, 394.9072
229.4550, 392.1718
229.9371, 389.8722
230.4192, 387.6077
230.9013, 386.3293
231.3834, 386.8332
231.8656, 388.2809
232.3477, 389.4000
232.8298, 389.6690
233.3119, 389.5464
233.7940, 390.1441
234.2761, 391.9166
234.7583, 393.1514
235.2404, 393.1587
235.7225, 392.3871
236.2046, 391.4047
236.6867, 390.1849
237.1688, 389.3576
237.6510, 390.5226
238.1331, 394.0908
238.6152, 396.7617
239.0973, 396.8433
239.5794, 395.2810
240.0615, 393.9671
240.5437, 393.2621
241.0258, 393.2550
241.5079, 394.3311
241.9900, 396.4793
242.4721, 398.3919
242.9542, 399.5960
243.4364, 400.1558
243.9185, 400.0272
244.4006, 398.7472
244.8827, 397.6410
245.3648, 398.4286
245.8469, 400.8307
246.3290, 402.7566
246.8112, 402.8158
247.2933, 401.5780
247.7754, 400.8044
248.2575, 400.8787
248.7396, 401.1741
249.2217, 401.1558
249.7039, 400.9186
250.1860, 400.7908
250.6681, 401.0205
251.1502, 401.5119
251.6323, 401.9694
252.1144, 402.5608
252.5966, 402.7802
253.0787, 402.0726
253.5608, 400.8111
254.0429, 399.8347
254.5250, 399.7481
255.0071, 400.3266
255.4893, 400.6569
255.9714, 400.4577
256.4535, 400.4789
256.9356, 401.4672
257.4177, 402.8116
257.8998, 403.4200
258.3820, 402.3483
258.8641, 400.2685
259.3462, 399.7517
259.8283, 402.2176
260.3104, 403.8975
260.7925, 403.1369
261.2747, 401.1196
261.7568, 399.3251
262.2389, 398.4260
262.7210, 398.2986
263.2031, 398.6635
263.6852, 399.9752
264.1674, 400.9995
264.6495, 401.4447
265.1316, 401.5077
265.6137, 401.3150
266.0958, 400.9038
266.5779, 400.4329
267.0601, 400.2986
267.5422, 400.6927
268.0243, 401.1056
268.5064, 401.5703
268.9885, 401.9629
269.4706, 402.0425
269.9528, 401.7453
270.4349, 401.4363
270.9170, 401.8938
271.3991, 403.7282
271.8812, 405.1268
272.3633, 405.8784
272.8455, 406.2830
273.3276, 406.4195
273.8097, 406.3670
274.2918, 406.3666
274.7739, 406.8406
275.2560, 408.1830
275.7382, 409.1558
276.2202, 409.7163
276.7024, 410.0265
277.1845, 409.8976
277.6666, 409.4663
278.1487, 409.3725
278.6308, 410.5434
279.1129, 413.6641
279.5951, 415.6304
280.0772, 415.4228
280.5593, 415.1554
281.0414, 415.9894
281.5235, 417.8868
282.0056, 420.1339
282.4878, 422.1337
282.9699, 423.9795
283.4520, 424.8861
283.9341, 423.1001
284.4162, 422.1957
284.8983, 424.5719
285.3805, 429.2123
285.8626, 433.1940
286.3447, 434.1337
286.8268, 432.0984
287.3089, 431.3080
287.7910, 432.6778
288.2732, 434.1964
288.7553, 435.4547
289.2374, 436.4385
289.7195, 437.1103
290.2016, 437.3933
290.6837, 437.4567
291.1659, 438.3033
291.6480, 441.3468
292.1301, 443.5054
292.6122, 443.4244
293.0943, 442.3658
293.5764, 442.1756
294.0586, 443.7193
294.5407, 446.3651
295.0228, 448.4118
295.5049, 449.4078
295.9870, 450.3163
296.4691, 450.8162
296.9513, 451.3983
297.4334, 452.7286
297.9155, 454.9936
298.3976, 457.6464
298.8797, 459.7619
299.3618, 460.9537
299.8440, 462.2894
300.3261, 464.1921
300.8082, 465.9643
301.2903, 466.8697
301.7724, 466.8409
302.2545, 466.6084
302.7367, 467.0249
303.2188, 468.2611
303.7009, 469.5928
304.1830, 471.5037
304.6651, 473.1194
305.1472, 473.6185
305.6294, 473.1578
306.1115, 472.7485
306.5936, 473.3313
307.0757, 474.9950
307.5578, 475.8595
308.0399, 474.8250
308.5221, 474.2207
309.0042, 475.1683
309.4863, 477.3956
309.9684, 479.9835
310.4505, 482.2799
310.9326, 484.4792
311.4148, 487.9372
311.8969, 493.3329
312.3790, 499.0014
312.8611, 504.8728
313.3432, 510.6986
313.8253, 516.1432
314.3075, 521.0230
314.7896, 525.4871
315.2717, 529.9428
315.7538, 534.7772
316.2359, 539.0585
316.7180, 542.0831
317.2001, 544.7960
317.6823, 548.3361
318.1644, 553.0308
318.6465, 558.1580
319.1286, 562.6142
319.6107, 565.7867
320.0928, 569.7355
320.5750, 574.7215
321.0571, 580.2825
321.5392, 586.2159
322.0213, 592.4092
322.5034, 598.6986
322.9855, 604.8089
323.4677, 610.6894
323.9498, 617.2285
324.4319, 624.3058
324.9140, 632.0366
325.3961, 640.5610
325.8782, 649.8035
326.3604, 659.6556
326.8425, 670.0632
327.3246, 681.0042
327.8067, 692.4843
328.2888, 704.9972
328.7709, 717.4291
329.2531, 730.5804
329.7352, 743.2444
330.2173, 753.8369
330.6994, 761.6719
331.1815, 766.5061
331.6636, 767.6191
332.1458, 765.4482
332.6279, 758.5079
333.1100, 745.8177
333.5921, 728.8518
334.0742, 707.9485
334.5563, 683.6268
335.0385, 657.7488
335.5206, 633.1419
336.0027, 609.8658
336.4848, 587.7889
336.9669, 566.2260
337.4490, 546.0295
337.9312, 527.3345
338.4133, 510.3138
338.8954, 495.7675
339.3775, 484.6439
339.8596, 477.2023
340.3417, 469.6837
340.8239, 461.3560
341.3060, 453.7180
341.7881, 447.4700
342.2702, 442.3021
342.7523, 437.5655
343.2344, 432.8660
343.7166, 428.3123
344.1987, 424.4887
344.6808, 422.3423
345.1629, 419.8767
345.6450, 416.4316
346.1271, 412.7951
346.6093, 410.0801
347.0914, 408.6642
347.5735, 407.6489
348.0556, 405.3161
348.5377, 400.6852
349.0198, 396.4369
349.5020, 392.3864
349.9841, 388.7929
350.4662, 386.1642
350.9483, 384.3762
351.4304, 382.5976
351.9125, 379.8112
352.3947, 375.7164
352.8768, 372.6709
353.3589, 371.1034
353.8410, 370.1464
354.3231, 369.9655
354.8052, 370.1628
355.2874, 369.9419
355.7695, 368.6443
356.2516, 366.6075
356.7337, 365.7950
357.2158, 367.3934
357.6979, 368.6552
358.1800, 368.7725
358.6621, 368.4520
359.1443, 368.4468
359.6264, 369.0479
360.1085, 370.0683
360.5906, 371.2189
361.0727, 372.5785
361.5548, 373.8676
362.0370, 375.1661
362.5191, 376.3110
363.0012, 377.0636
363.4833, 377.4818
363.9654, 377.9463
364.4475, 378.8569
364.9297, 380.2361
365.4118, 381.6985
365.8939, 383.6151
366.3760, 385.1765
366.8581, 385.7208
367.3402, 385.6891
367.8224, 385.9931
368.3045, 387.2252
368.7866, 389.1001
369.2687, 390.8616
369.7508, 392.6528
370.2329, 393.9749
370.7151, 393.9705
371.1972, 393.7836
371.6793, 394.7393
372.1614, 397.3188
372.6435, 400.2741
373.1256, 401.8949
373.6078, 402.0555
374.0899, 402.7015
374.5720, 404.7550
375.0541, 406.9664
375.5362, 408.4255
376.0183, 409.1507
376.5005, 409.6269
376.9826, 410.2175
377.4647, 410.8221
377.9468, 411.1161
378.4289, 411.1464
378.9110, 410.6951
379.3932, 409.2516
379.8753, 407.2638
380.3574, 405.6489
380.8395, 405.4095
381.3216, 404.9993
381.8037, 402.2411
382.2859, 397.0874
382.7680, 391.7005
383.2501, 386.6077
383.7322, 382.1390
384.2143, 378.8993
384.6964, 377.4335
385.1786, 375.3712
385.6607, 370.8279
386.1428, 364.6682
386.6249, 359.0946
387.1070, 354.6172
387.5891, 350.8868
388.0713, 347.6947
388.5534, 344.9908
389.0355, 342.3438
389.5176, 339.4546
389.9997, 336.7155
390.4818, 334.7114
390.9640, 333.4065
391.4461, 331.9179
391.9282, 329.4112
392.4103, 326.2582
392.8924, 324.3724
393.3745, 325.0392
393.8567, 325.4457
394.3388, 324.2191
394.8209, 321.9847
395.3030, 319.8515
395.7851, 318.1703
396.2672, 317.0200
396.7494, 316.6272
397.2315, 317.5689
397.7136, 317.8705
398.1957, 317.0247
398.6778, 315.7901
399.1599, 314.7404
399.6420, 313.9500
400.1241, 313.2365
400.6063, 312.4327
401.0884, 311.5298
401.5705, 310.7777
402.0526, 309.7682
402.5347, 309.3301
403.0168, 310.2933
403.4990, 311.8847
403.9811, 312.7961
404.4632, 312.3902
404.9453, 311.2178
405.4274, 310.6541
405.9095, 311.5056
406.3917, 311.5922
406.8738, 309.8774
407.3559, 308.1604
407.8380, 307.9624
408.3201, 309.2906
408.8022, 310.8648
409.2844, 311.4254
409.7665, 310.9112
410.2486, 310.2555
410.7307, 309.3164
411.2128, 308.3771
411.6949, 307.0551
412.1771, 305.8802
412.6592, 305.8259
413.1413, 307.5288
413.6234, 310.0700
414.1055, 311.4176
414.5876, 311.2022
415.0698, 310.9283
415.5519, 311.2506
416.0340, 311.4324
416.5161, 310.5541
416.9982, 308.6323
417.4803, 307.2515
417.9625, 308.2744
418.4446, 311.2637
418.9267, 313.1830
419.4088, 313.5312
419.8909, 313.2959
420.3730, 313.0027
420.8552, 312.6355
421.3373, 312.1148
421.8194, 311.1261
422.3015, 310.2690
422.7836, 310.4010
423.2657, 311.5103
423.7479, 312.6834
424.2300, 313.6396
424.7121, 314.3902
425.1942, 314.9369
425.6763, 315.2169
426.1584, 315.6128
426.6406, 316.7083
427.1227, 317.9098
427.6048, 317.9922
428.0869, 316.6827
428.5690, 315.2028
429.0511, 314.6100
429.5333, 314.9581
430.0154, 315.5263
430.4975, 316.1654
430.9796, 317.1644
431.4617, 319.1224
431.9438, 321.5855
432.4260, 323.3831
432.9081, 323.9192
433.3902, 323.6122
433.8723, 323.4355
434.3544, 323.6292
434.8365, 323.5406
435.3187, 322.5365
435.8008, 321.6453
436.2829, 321.7816
436.7650, 322.9943
437.2471, 324.7404
437.7292, 326.5910
438.2114, 328.5674
438.6935, 330.0616
439.1756, 330.3349
439.6577, 330.9519
440.1398, 332.5839
440.6219, 334.6703
441.1040, 336.4153
441.5862, 337.4799
442.0683, 338.1948
442.5504, 339.1967
443.0325, 340.7051
443.5146, 341.8391
443.9967, 341.3345
444.4789, 341.4405
444.9610, 343.8078
445.4431, 348.0017
445.9252, 352.1948
446.4073, 354.9565
446.8894, 356.6713
447.3716, 358.7271
447.8537, 361.0078
448.3358, 363.9214
448.8179, 367.9266
449.3000, 372.5514
449.7821, 377.4769
450.2643, 382.7397
450.7464, 387.8126
451.2285, 391.5685
451.7106, 394.5127
452.1927, 399.2560
452.6748, 406.7094
453.1570, 415.1974
453.6391, 423.1869
454.1212, 430.7852
454.6033, 438.4876
455.0854, 446.1311
455.5675, 454.0854
456.0497, 462.7950
456.5318, 472.1703
457.0139, 481.8251
457.4960, 491.5443
457.9781, 501.4549
458.4602, 512.1520
458.9424, 524.7098
459.4245, 535.7440
459.9066, 543.5856
460.3887, 550.1855
460.8708, 557.3318
461.3529, 565.3697
461.8351, 573.9797
462.3172, 582.9908
462.7993, 592.3679
463.2814, 601.5934
463.7635, 609.8259
464.2456, 618.8692
464.7278, 630.3019
465.2099, 642.5300
465.6920, 653.2023
466.1741, 661.4879
466.6562, 668.5652
467.1383, 676.1849
467.6205, 684.1216
468.1026, 693.5433
468.5847, 706.1824
469.0668, 718.8187
469.5489, 729.8077
470.0310, 739.5425
470.5132, 749.3273
470.9953, 760.2547
471.4774, 771.5123
471.9595, 781.1527
472.4416, 789.2128
472.9237, 795.5143
473.4059, 799.9750
473.8880, 802.4789
474.3701, 803.4378
474.8522, 802.9787
475.3343, 798.6133
475.8164, 787.5746
476.2986, 771.5500
476.7807, 754.3749
477.2628, 736.5090
477.7449, 717.6234
478.2270, 696.9861
478.7091, 675.0067
479.1913, 653.7722
479.6734, 632.8177
480.1555, 613.2916
480.6376, 596.0340
481.1197, 580.6265
481.6018, 566.0267
482.0839, 551.8691
482.5660, 538.7988
483.0482, 527.7060
483.5303, 519.0903
484.0124, 511.1138
484.4945, 503.6815
484.9766, 496.9475
485.4587, 490.9752
485.9409, 485.7420
486.4230, 481.1950
486.9051, 477.2839
487.3872, 474.0094
487.8693, 471.5102
488.3514, 470.5712
488.8336, 468.8792
489.3157, 465.1277
489.7978, 461.5875
490.2799, 459.9705
490.7620, 460.1629
491.2441, 460.8201
491.7263, 460.9027
492.2084, 460.5598
492.6905, 460.4432
493.1726, 460.4286
493.6547, 460.9488
494.1368, 462.4024
494.6190, 464.3741
495.1011, 466.5135
495.5832, 468.7631
496.0653, 471.1358
496.5474, 473.6958
497.0295, 476.3721
497.5117, 479.0402
497.9938, 481.7823
498.4759, 484.0807
498.9580, 485.3473
499.4401, 485.7484
499.9222, 486.2873
500.4044, 487.8912
500.8865, 488.7523
501.3686, 488.1934
501.8507, 486.1904
502.3328, 482.5213
502.8149, 477.0888
503.2971, 470.5244
503.7792, 463.6994
504.2613, 456.5389
504.7434, 449.1362
505.2255, 441.1501
505.7076, 433.2954
506.1898, 425.5799
506.6719, 418.2841
507.1540, 411.9843
507.6361, 406.9903
508.1182, 402.9795
508.6003, 399.2962
509.0825, 396.0228
509.5646, 392.8460
510.0467, 389.3458
510.5288, 386.2765
511.0109, 384.0697
511.4930, 382.6742
511.9752, 381.7940
512.4573, 381.3497
512.9394, 381.2313
513.4215, 381.2426
513.9036, 381.4181
514.3857, 381.4752
514.8679, 381.0418
515.3500, 380.6432
515.8321, 380.7920
516.3142, 381.4682
516.7963, 382.9722
517.2784, 386.3655
517.7606, 390.2370
518.2427, 392.2934
518.7248, 392.4330
519.2069, 392.7138
519.6890, 394.5807
520.1711, 397.6739
520.6533, 400.1345
521.1354, 401.2559
521.6175, 402.8044
522.0996, 405.6156
522.5817, 408.6673
523.0638, 410.8051
523.5460, 411.9154
524.0281, 412.7738
524.5102, 414.0701
524.9923, 415.7939
525.4744, 417.8814
525.9565, 420.6936
526.4387, 423.3847
526.9208, 425.4849
527.4029, 427.5511
527.8850, 430.1132
528.3671, 433.3144
528.8492, 437.0357
529.3314, 441.6663
529.8135, 446.9871
530.2956, 450.6038
530.7777, 451.4081
531.2598, 452.5151
531.7419, 456.5843
532.2241, 462.0790
532.7062, 466.5619
533.1883, 469.2068
533.6704, 471.5452
534.1525, 475.2138
534.6346, 479.3115
535.1168, 481.6687
535.5989, 481.7467
536.0810, 480.5499
536.5631, 479.0406
537.0452, 477.1974
537.5273, 474.5527
538.0095, 470.9313
538.4916, 466.7758
538.9737, 462.1492
539.4558, 457.1080
539.9379, 451.4936
540.4200, 445.3294
540.9022, 439.2192
541.3843, 434.0260
541.8664, 429.8199
542.3485, 426.1428
542.8306, 423.3589
543.3127, 420.7697
543.7948, 417.6479
544.2769, 414.7427
544.7590, 413.5228
545.2411, 414.7232
545.7233, 416.2740
546.2054, 415.0919
546.6875, 411.4317
547.1696, 409.2669
547.6517, 409.6325
548.1339, 410.7590
548.6160, 411.0984
549.0981, 410.9965
549.5802, 411.5067
550.0623, 413.4055
550.5444, 415.3416
551.0266, 416.4304
551.5087, 416.9052
551.9908, 417.3039
552.4729, 417.7900
552.9550, 418.1950
553.4371, 418.2570
553.9193, 417.8524
554.4014, 417.8864
554.8835, 419.2538
555.3656, 420.0154
555.8477, 419.1208
556.3298, 417.2918
556.8120, 415.6605
557.2941, 414.6266
557.7762, 413.7008
558.2583, 412.2363
558.7404, 410.2386
559.2225, 407.6592
559.7047, 403.7663
560.1868, 400.2873
560.6689, 398.2937
561.1510, 397.1324
561.6331, 395.6871
562.1152, 393.6039
562.5974, 391.2295
563.0795, 388.6291
563.5616, 385.9671
564.0437, 383.9003
564.5258, 382.6090
565.0079, 381.6656
565.4901, 380.7732
565.9722, 379.9157
566.4543, 378.8795
566.9364, 377.4409
567.4185, 376.0851
567.9006, 375.1230
568.3828, 374.3120
568.8649, 373.2017
569.3470, 371.7233
569.8291, 370.2945
570.3112, 369.4083
570.7933, 369.0783
571.2755, 369.0136
571.7576, 369.7399
572.2397, 370.0541
572.7218, 369.5724
573.2039, 368.5925
573.6860, 367.2969
574.1682, 365.7474
574.6503, 364.4020
575.1324, 363.6483
575.6145, 363.4543
576.0966, 363.7707
576.5787, 364.7031
577.0609, 365.7220
577.5430, 366.5870
578.0251, 367.2772
578.5072, 367.7465
578.9893, 367.8581
579.4714, 368.0561
579.9536, 368.6528
580.4357, 369.3550
580.9178, 369.8251
581.3999, 370.0184
581.8820, 369.9890
582.3641, 369.7075
582.8463, 369.2993
583.3284, 369.4904
583.8105, 370.6025
584.2926, 371.8949
584.7747, 373.3964
585.2568, 374.9893
585.7390, 376.5277
586.2211, 378.0532
586.7032, 379.7657
587.1853, 381.7624
587.6674, 384.0821
588.1495, 386.8911
588.6317, 390.2746
589.1138, 393.6539
589.5959, 396.8598
590.0780, 399.9854
590.5601, 403.0550
591.0422, 406.0741
591.5244, 409.2614
592.0065, 412.6078
592.4886, 416.1976
592.9707, 419.9165
593.4528, 423.8824
593.9349, 428.4706
594.4171, 433.8192
594.8992, 439.9632
595.3813, 447.1249
595.8634, 455.9775
596.3455, 463.8675
596.8276, 470.3192
597.3098, 476.4449
597.7919, 482.4345
598.2740, 488.5121
598.7561, 495.0466
599.2382, 502.2156
599.7203, 509.5919
600.2025, 516.3053
600.6846, 522.4348
601.1667, 530.3948
601.6488, 541.8035
602.1309, 552.2331
602.6130, 557.1749
603.0952, 559.1459
603.5773, 563.0699
604.0594, 570.2545
604.5415, 578.2053
605.0236, 585.8309
605.5057, 593.3870
605.9879, 601.3167
606.4700, 609.6411
606.9521, 617.8868
607.4342, 625.5216
607.9163, 632.7120
608.3984, 640.9026
608.8806, 651.2129
609.3627, 660.9550
609.8448, 670.1453
610.3269, 678.5119
610.8090, 685.8984
611.2911, 692.2647
611.7733, 697.5770
612.2554, 701.7259
612.7375, 704.8783
613.2196, 707.8384
613.7017, 710.8145
614.1838, 711.3546
614.6660, 707.9725
615.1481, 702.7422
615.6302, 698.3664
616.1123, 694.7358
616.5944, 689.2101
617.0765, 679.5131
617.5587, 669.4183
618.0408, 661.2416
618.5229, 654.6553
619.0050, 648.8654
619.4871, 643.5745
619.9692, 638.4772
620.4514, 633.0341
620.9335, 626.9901
621.4156, 622.3817
621.8977, 619.7916
622.3798, 618.0457
622.8619, 617.0205
623.3441, 616.5883
623.8262, 616.5294
624.3083, 616.8075
624.7904, 617.8984
625.2725, 620.8736
625.7546, 624.9001
626.2367, 627.3327
626.7188, 627.8727
627.2009, 628.9023
627.6830, 631.7754
628.1652, 635.8353
628.6473, 639.7064
629.1294, 643.3881
629.6115, 646.9023
630.0936, 650.5925
630.5757, 653.8394
631.0579, 656.0997
631.5400, 657.5446
632.0221, 658.8312
632.5042, 660.3067
632.9863, 661.3781
633.4684, 660.8422
633.9506, 658.4500
634.4327, 655.6808
634.9148, 652.9833
635.3969, 649.3937
635.8790, 644.5399
636.3611, 638.5573
636.8433, 631.5909
637.3254, 623.5677
637.8075, 615.0032
638.2896, 606.1251
638.7717, 597.0764
639.2538, 587.9639
639.7360, 578.8508
640.2181, 569.7548
640.7002, 560.5715
641.1823, 551.5313
641.6644, 543.4882
642.1465, 537.7710
642.6287, 531.2750
643.1108, 523.2076
643.5929, 515.0277
644.0750, 507.5089
644.5571, 500.7210
645.0392, 494.5092
645.5214, 488.8873
646.0035, 483.5833
646.4856, 478.1219
646.9677, 472.5047
647.4498, 467.0586
647.9319, 461.6711
648.4141, 456.8663
648.8962, 453.6085
649.3783, 451.3623
649.8604, 448.1922
650.3425, 442.9341
650.8246, 438.1077
651.3068, 435.1898
651.7889, 433.0024
652.2710, 430.0216
652.7531, 426.1363
653.2352, 422.2494
653.7173, 418.9984
654.1995, 416.4251
654.6816, 414.9312
655.1637, 415.5530
655.6458, 414.7765
656.1279, 410.4291
656.6100, 405.8690
657.0922, 403.0655
657.5743, 401.7117
658.0564, 400.4982
658.5385, 399.1723
659.0206, 397.4273
659.5027, 394.4036
659.9849, 390.7367
660.4670, 388.3500
660.9491, 387.7172
661.4312, 387.6375
661.9133, 387.0762
662.3954, 386.0597
662.8776, 384.9846
663.3597, 384.1073
663.8418, 382.8281
664.3239, 380.5195
664.8060, 378.2098
665.2881, 376.7036
665.7703, 376.0138
666.2524, 375.7784
666.7345, 375.9576
667.2166, 376.1679
667.6987, 375.5536
668.1808, 374.1425
668.6630, 372.9738
669.1451, 372.3101
669.6272, 371.9242
670.1093, 371.8058
670.5914, 371.8705
671.0735, 371.2869
671.5557, 369.5219
672.0378, 367.7403
672.5199, 366.0556
673.0020, 364.7072
673.4841, 364.0587
673.9662, 364.0680
674.4484, 364.3180
674.9305, 364.5474
675.4126, 364.6813
675.8947, 364.3264
676.3768, 363.2375
676.8589, 362.8156
677.3411, 364.0530
677.8232, 365.2354
678.3053, 364.8417
678.7874, 363.2438
679.2695, 361.7774
679.7516, 360.8000
680.2338, 359.9606
680.7159, 358.9101
681.1980, 357.9202
681.6801, 357.5988
682.1622, 357.9500
682.6443, 358.1292
683.1265, 357.3698
683.6086, 355.9579
684.0907, 355.3321
684.5728, 355.9260
685.0549, 356.3529
685.5370, 356.4324
686.0192, 356.2845
686.5013, 355.8255
686.9834, 355.1842
687.4655, 354.7149
687.9476, 354.6491
688.4297, 354.6158
688.9119, 354.3753
689.3940, 353.9052
689.8761, 352.9981
690.3582, 351.6349
690.8403, 350.4622
691.3224, 349.9786
691.8046, 350.0903
692.2867, 350.3680
692.7688, 351.3515
693.2509, 351.6165
693.7330, 350.7172
694.2151, 349.5038
694.6973, 348.3790
695.1794, 347.3623
695.6615, 346.4413
696.1436, 345.6992
696.6257, 344.7408
697.1078, 342.6887
697.5900, 340.0273
698.0721, 338.5616
698.5542, 338.6076
699.0363, 339.0367
699.5184, 339.2012
700.0005, 339.0914
700.4827, 338.6714
700.9648, 337.8543
701.4469, 336.8479
701.9290, 335.7270
702.4111, 334.3474
702.8932, 332.0159
703.3754, 329.4759
703.8575, 328.3720
704.3396, 329.4732
704.8217, 331.0157
705.3038, 330.8442
705.7859, 329.2564
706.2681, 327.5743
706.7502, 325.8666
707.2323, 324.3735
707.7144, 323.3243
708.1965, 322.4867
708.6786, 321.2783
709.1607, 319.4786
709.6428, 317.9726
710.1249, 317.0602
710.6071, 316.2036
711.0892, 315.1416
711.5713, 313.9128
712.0534, 312.5771
712.5355, 311.1593
713.0176, 309.8124
713.4998, 308.8364
713.9819, 308.1091
714.4640, 306.8015
714.9461, 304.7762
715.4282, 303.0481
715.9103, 302.0666
716.3925, 301.6017
716.8746, 301.5488
717.3567, 302.0675
717.8388, 301.6310
718.3209, 298.6944
718.8030, 296.3244
719.2852, 296.6064
719.7673, 298.0450
720.2494, 298.4861
720.7315, 297.4922
721.2136, 296.2247
721.6957, 295.7833
722.1779, 295.8927
722.6600, 295.5169
723.1421, 294.5805
723.6242, 293.8200
724.1063, 293.5782
724.5884, 293.3739
725.0706, 292.5721
725.5527, 291.2368
726.0348, 290.3247
726.5169, 290.0561
726.9990, 290.0055
727.4811, 290.0082
727.9633, 290.1718
728.4454, 290.9277
728.9275, 292.0550
729.4096, 292.4600
729.8917, 291.1814
730.3738, 289.2922
730.8560, 289.2880
731.3381, 291.2326
731.8202, 292.9211
732.3023, 294.1984
732.7844, 294.6669
733.2665, 293.5663
733.7487, 291.4303
734.2308, 290.3140
734.7129, 290.6769
735.1950, 291.1853
735.6771, 291.6740
736.1592, 292.1254
736.6414, 292.5293
737.1235, 292.8872
737.6056, 293.2289
738.0877, 293.5731
738.5698, 293.8204
739.0519, 293.7859
739.5341, 293.5034
740.0162, 293.2618
740.4983, 293.0565
740.9804, 292.9857
741.4625, 293.1480
741.9446, 293.4268
742.4268, 293.5068
742.9089, 293.2131
743.3910, 293.5932
743.8731, 295.5426
744.3552, 297.3050
744.8373, 297.9496
745.3195, 297.9173
745.8016, 297.8436
746.2837, 297.8913
746.7658, 297.8507
747.2479, 297.3217
747.7300, 296.6787
748.2122, 297.2683
748.6943, 299.1214
749.1764, 300.1006
749.6585, 299.3553
750.1406, 298.2330
750.6227, 298.2799
751.1049, 299.4289
751.5870, 299.3886
752.0691, 297.1235
752.5512, 295.1715
753.0333, 293.9616
753.5154, 293.2451
753.9976, 292.8727
754.4797, 292.7928
754.9618, 293.0971
755.4439, 294.0284
755.9260, 294.6547
756.4081, 293.3878
756.8903, 290.7083
757.3724, 288.4589
757.8545, 286.8306
758.3366, 286.2860
758.8187, 287.4899
759.3008, 289.4591
759.7830, 289.6840
760.2651, 287.1801
760.7472, 285.2337
761.2293, 284.1921
761.7114, 283.2892
762.1935, 282.2430
762.6757, 281.1407
763.1578, 280.1380
763.6399, 279.2686
764.1220, 278.3765
764.6041, 277.1605
765.0862, 275.9640
765.5684, 275.5385
766.0505, 275.6752
766.5326, 275.1639
767.0147, 273.5670
767.4968, 272.1013
767.9789, 272.2485
768.4611, 273.9068
768.9432, 274.6606
769.4253, 274.1479
769.9074, 273.3301
770.3895, 271.9769
770.8716, 270.7036
771.3538, 270.0283
771.8359, 269.7973
772.3180, 269.4523
772.8001, 268.7338
773.2822, 268.0318
773.7643, 267.8090
774.2465, 267.6718
774.7286, 266.9240
775.2107, 265.6242
775.6928, 264.4175
776.1749, 263.6602
776.6570, 263.1845
777.1392, 262.6206
777.6213, 261.8990
778.1034, 261.7002
778.5855, 262.5981
779.0676, 262.8959
779.5497, 261.2230
780.0319, 258.9135
780.5140, 257.7433
780.9961, 257.8116
781.4782, 257.9022
781.9603, 257.6302
782.4424, 257.3954
782.9246, 257.6898
783.4067, 258.0490
783.8888, 257.6701
784.3709, 256.4984
784.8530, 255.1966
785.3351, 254.1540
785.8173, 253.5645
786.2994, 254.3966
786.7815, 256.6522
787.2636, 257.3051
787.7457, 255.3279
788.2278, 253.2975
788.7100, 253.4422
789.1921, 255.0306
789.6742, 255.1019
790.1563, 252.3603
790.6384, 250.5618
791.1205, 250.6379
791.6026, 250.9696
792.0847, 250.7620
792.5668, 250.1448
793.0490, 249.3948
793.5311, 248.6012
794.0132, 247.8647
794.4953, 247.1090
794.9774, 246.5406
795.4595, 246.8718
795.9417, 247.8639
796.4238, 247.9507
796.9059, 246.5691
797.3880, 244.9176
797.8701, 244.3427
798.3522, 244.7609
798.8344, 244.8853
799.3165, 244.6482
799.7986, 244.2397
800.2807, 243.6113
800.7628, 242.8811
801.2449, 241.7531
801.7271, 240.5956
802.2092, 240.5416
802.6913, 242.5164
803.1734, 243.9484
803.6555, 242.9517
804.1376, 241.1500
804.6198, 240.2441
805.1019, 240.1421
805.5840, 240.1314
806.0661, 239.9007
806.5482, 239.4434
807.0303, 238.6126
807.5125, 237.4897
807.9946, 236.9111
808.4767, 236.9666
808.9588, 237.0710
809.4409, 237.0680
809.9230, 236.9801
810.4052, 236.8591
810.8873, 236.6994
811.3694, 236.3118
811.8515, 235.2063
812.3336, 234.5395
812.8157, 234.8768
813.2979, 235.4565
813.7800, 235.6211
814.2621, 235.4956
814.7442, 235.6807
815.2263, 236.5338
815.7084, 237.2013
816.1906, 236.6362
816.6727, 235.3542
817.1548, 234.3340
817.6369, 233.6470
818.1190, 233.2043
818.6011, 232.9794
819.0833, 232.8449
819.5654, 232.6000
820.0475, 232.2335
820.5296, 232.0547
821.0117, 232.0897
821.4938, 232.2604
821.9760, 232.7534
822.4581, 233.1921
822.9402, 233.3488
823.4223, 233.2017
823.9044, 232.6283
824.3865, 230.9091
824.8687, 229.8187
825.3508, 230.6705
825.8329, 231.9868
826.3150, 232.3363
826.7971, 231.8497
827.2792, 231.2766
827.7614, 230.9439
828.2435, 230.7998
828.7256, 230.9240
829.2077, 231.1845
829.6898, 231.0362
830.1719, 230.4671
830.6541, 229.8405
831.1362, 229.3222
831.6183, 228.6275
832.1004, 227.2031
832.5825, 225.0826
833.0646, 224.4924
833.5468, 226.7088
834.0289, 228.4883
834.5110, 229.7171
834.9931, 230.1654
835.4752, 229.1488
835.9573, 227.3002
836.4395, 226.1595
836.9216, 226.2239
837.4037, 226.6608
837.8858, 227.4985
838.3679, 228.1327
838.8500, 227.7278
839.3322, 226.6031
839.8143, 225.4835
840.2964, 224.6728
840.7785, 224.4670
841.2606, 225.5563
841.7427, 227.3799
842.2249, 227.4607
842.7070, 225.7121
843.1891, 224.2158
843.6712, 223.3663
844.1533, 223.2935
844.6354, 224.3539
845.1176, 226.2444
845.5997, 227.4804
846.0818, 228.1389
846.5639, 227.9701
847.0460, 225.6110
847.5281, 223.9201
848.0103, 224.8888
848.4924, 227.0954
848.9745, 228.3913
849.4566, 228.3558
849.9387, 228.0160
850.4208, 227.9064
850.9030, 227.7250
851.3851, 227.0034
851.8672, 226.0669
852.3493, 225.5795
852.8314, 225.6321
853.3135, 225.8110
853.7957, 225.8136
854.2778, 225.7134
854.7599, 225.7444
855.2420, 225.8974
855.7241, 225.5793
856.2062, 224.5666
856.6884, 223.9328
857.1705, 224.4605
857.6526, 225.4400
858.1347, 225.4726
858.6168, 224.1830
859.0989, 223.6434
859.5811, 224.9593
860.0632, 225.5751
860.5453, 224.3228
861.0274, 222.5738
861.5095, 221.2733
861.9916, 220.5906
862.4738, 220.7653
862.9559, 222.4805
863.4380, 223.9075
863.9201, 223.5826
864.4022, 222.5059
864.8843, 221.7745
865.3665, 221.4345
865.8486, 221.1695
866.3307, 220.8496
866.8128, 220.7033
867.2949, 221.1408
867.7770, 221.9896
868.2592, 222.5196
868.7413, 222.7286
869.2234, 222.6007
869.7055, 222.0377
870.1876, 221.5524
870.6697, 221.6988
871.1519, 222.3140
871.6340, 222.4854
872.1161, 222.1058
872.5981, 221.4826
873.0803, 220.0679
873.5624, 219.0202
874.0445, 219.2295
874.5266, 219.9148
875.0087, 219.8957
875.4908, 218.9876
875.9730, 218.1157
876.4551, 217.4502
876.9372, 217.0761
877.4193, 216.7703
877.9014, 216.9449
878.3835, 218.8002
878.8657, 221.8604
879.3478, 223.7419
879.8299, 222.8961
880.3120, 220.7623
880.7941, 218.7840
881.2762, 217.2025
881.7584, 217.0896
882.2405, 218.4036
882.7226, 219.7751
883.2047, 220.6600
883.6868, 220.8005
884.1689, 219.6123
884.6511, 217.1738
885.1332, 216.2466
885.6153, 217.4335
886.0974, 218.4836
886.5795, 219.0174
887.0616, 219.2171
887.5438, 219.1893
888.0259, 218.9317
888.5080, 218.4080
888.9901, 217.4086
889.4722, 216.6419
889.9543, 216.0198
890.4365, 215.8522
890.9186, 216.9179
891.4007, 218.2148
891.8828, 218.2397
892.3649, 216.9055
892.8470, 215.6160
893.3292, 215.1855
893.8113, 215.1073
894.2934, 214.9392
894.7755, 214.7690
895.2576, 214.7965
895.7397, 214.9982
896.2219, 215.2006
896.7040, 215.3194
897.1861, 215.2319
897.6682, 214.5333
898.1503, 213.3756
898.6324, 213.1007
899.1146, 213.7831
899.5967, 214.3141
900.0788, 214.3832
900.5609, 214.0575
901.0430, 213.2209
901.5251, 212.0790
902.0073, 212.0020
902.4894, 213.9729
902.9715, 214.9629
903.4536, 213.2816
903.9357, 212.4120
904.4178, 215.4988
904.9000, 219.4854
905.3821, 219.6721
905.8642, 215.4827
906.3463, 212.0871
906.8284, 210.6976
907.3105, 210.4029
907.7927, 211.8744
908.2748, 213.4707
908.7569, 213.0685
909.2390, 211.1905
909.7211, 210.2162
910.2032, 211.3623
910.6854, 212.6764
911.1675, 212.0966
911.6496, 210.6730
912.1317, 209.9920
912.6138, 210.0408
913.0959, 210.6784
913.5781, 211.7690
914.0602, 212.2402
914.5423, 210.7881
915.0244, 212.0814
915.5065, 208.9785
915.9886, 212.3629
916.4708, 213.8737
916.9529, 212.6515
917.4350, 211.0499
917.9171, 210.2012
918.3992, 210.0090
918.8813, 210.3975
919.3635, 211.5075
919.8456, 212.1523
920.3277, 212.2378
920.8098, 212.0163
921.2919, 211.3494
921.7740, 210.5620
922.2562, 209.5793
922.7383, 208.6679
923.2204, 208.7378
923.7025, 210.5820
924.1846, 211.6184
924.6667, 210.2854
925.1489, 208.9383
925.6310, 209.2090
926.1131, 210.2359
926.5952, 210.8658
927.0773, 210.8766
927.5594, 210.5051
928.0416, 209.6589
928.5237, 208.8493
929.0058, 208.4093
929.4879, 208.3760
929.9700, 209.1789
930.4521, 210.4757
930.9343, 210.9251
931.4164, 209.9903
931.8985, 208.7883
932.3806, 208.7577
932.8627, 209.4505
933.3448, 209.3130
933.8270, 208.4311
934.3091, 207.6905
934.7912, 207.2746
935.2733, 207.2608
935.7554, 207.8015
936.2375, 208.5414
936.7197, 208.5577
937.2018, 207.6771
937.6839, 207.0348
938.1660, 206.5578
938.6481, 206.5217
939.1302, 207.2180
939.6124, 208.1545
940.0945, 209.0080
940.5766, 209.7169
941.0587, 209.6974
941.5408, 208.0322
942.0229, 207.0652
942.5051, 207.5272
942.9872, 208.0222
943.4693, 207.7845
943.9514, 207.2116
944.4335, 206.9024
944.9156, 206.9199
945.3978, 206.8477
945.8799, 206.2999
946.3620, 205.9259
946.8441, 206.3634
947.3262, 206.9092
947.8083, 206.6566
948.2905, 205.8955
948.7726, 205.5860
949.2547, 206.0859
949.7368, 206.7202
950.2189, 207.2157
950.7010, 207.3075
951.1832, 206.3502
951.6653, 204.7600
952.1474, 203.3800
952.6295, 202.4509
953.1116, 202.2885
953.5938, 203.2017
954.0759, 204.2378
954.5580, 203.2648
955.0400, 200.9013
955.5222, 200.8222
956.0043, 203.0908
956.4864, 204.9245
956.9685, 205.4305
957.4506, 205.1046
957.9327, 204.2863
958.4149, 203.2073
958.8970, 203.0400
959.3791, 204.1375
959.8612, 204.2450
960.3433, 202.7520
960.8254, 201.4769
961.3076, 201.2312
961.7897, 201.6809
962.2718, 202.5716
962.7539, 203.9256
963.2360, 204.4959
963.7181, 203.8769
964.2003, 203.0874
964.6824, 201.8466
965.1645, 200.8574
965.6466, 200.5803
966.1287, 200.7632
966.6108, 200.9794
967.0930, 201.1828
967.5751, 201.5032
968.0572, 202.4154
968.5393, 202.8854
969.0214, 202.1287
969.5035, 201.0557
969.9857, 200.4058
970.4678, 200.1828
970.9499, 200.1791
971.4320, 200.3496
971.9141, 200.5908
972.3962, 201.1099
972.8784, 201.4160
973.3605, 200.7619
973.8426, 199.7533
974.3247, 199.3968
974.8068, 199.7344
975.2889, 200.1333
975.7711, 200.2545
976.2532, 200.4501
976.7353, 200.3966
977.2174, 200.5447
977.6995, 200.5232
978.1816, 200.3891
978.6638, 200.3537
979.1459, 200.4769
979.6280, 200.7461
980.1101, 201.2002
980.5922, 201.6311
981.0743, 201.5560
981.5565, 201.0462
982.0386, 200.4803
982.5207, 199.8938
983.0028, 199.3866
983.4849, 198.9865
983.9670, 198.8244
984.4492, 199.0816
984.9313, 199.6612
985.4134, 200.1694
985.8955, 200.6461
986.3776, 200.6693
986.8597, 200.0716
987.3419, 199.4792
987.8240, 199.1729
988.3061, 199.0609
988.7882, 199.0039
989.2703, 199.0023
989.7524, 199.2621
990.2346, 200.0076
990.7167, 200.5250
991.1988, 200.7931
991.6809, 200.7146
992.1630, 199.8648
992.6451, 198.8254
993.1273, 198.8236
993.6094, 200.1112
994.0915, 200.5883
994.5736, 199.2678
995.0557, 198.4755
995.5378, 199.0203
996.0200, 199.8644
996.5021, 200.5284
996.9842, 200.9204
997.4663, 200.7996
997.9484, 200.0135
998.4305, 199.6266
998.9127, 200.2524
999.3948, 200.8928
999.8769, 201.4086
1000.359, 201.5096
1000.841, 200.6210
1001.323, 199.1452
1001.805, 198.1390
1002.287, 197.9527
1002.770, 197.8918
1003.252, 197.5007
1003.734, 197.2142
1004.216, 197.6010
1004.698, 198.1299
1005.180, 197.8599
1005.662, 197.0143
1006.144, 196.8117
1006.627, 197.8728
1007.109, 198.9378
1007.591, 198.8923
1008.073, 198.3488
1008.555, 197.7985
1009.037, 197.3870
1009.519, 197.3428
1010.001, 197.6799
1010.483, 198.3185
1010.966, 199.2668
1011.448, 200.0955
1011.930, 200.2575
1012.412, 199.9567
1012.894, 199.4336
1013.376, 198.8186
1013.858, 198.5236
1014.340, 198.6033
1014.823, 198.7220
1015.305, 198.6756
1015.787, 198.3713
1016.269, 197.3312
1016.751, 195.9182
1017.233, 195.6808
1017.715, 196.5295
1018.197, 197.3470
1018.679, 197.8118
1019.162, 198.1297
1019.644, 198.5002
1020.126, 198.7187
1020.608, 198.0583
1021.090, 196.6452
1021.572, 196.3883
1022.054, 197.4016
1022.536, 198.0984
1023.018, 197.9569
1023.501, 197.4883
1023.983, 197.1093
1024.465, 196.8298
1024.947, 196.7014
1025.429, 196.7373
1025.911, 196.8110
1026.393, 196.9779
1026.875, 196.7713
1027.358, 195.8712
1027.840, 195.0409
1028.322, 195.0024
1028.804, 195.6605
1029.286, 196.7767
1029.768, 198.7204
1030.250, 199.5168
1030.732, 198.7605
1031.214, 197.8366
1031.697, 197.1413
1032.179, 196.6145
1032.661, 196.1674
1033.143, 195.8411
1033.625, 195.8791
1034.107, 196.5867
1034.589, 196.8743
1035.071, 196.4772
1035.553, 196.1319
1036.036, 196.1426
1036.518, 196.2602
1037.000, 196.2182
1037.482, 196.0576
1037.964, 196.0208
1038.446, 196.2107
1038.928, 196.3246
1039.410, 196.4701
1039.893, 196.3882
1040.375, 195.4904
1040.857, 194.7239
1041.339, 195.3002
1041.821, 196.9047
1042.303, 197.8106
1042.785, 197.6997
1043.267, 197.4583
1043.750, 196.7695
1044.232, 196.3926
1044.714, 196.9947
1045.196, 197.7203
1045.678, 197.6031
1046.160, 196.8364
1046.642, 196.4478
1047.124, 196.7046
1047.606, 196.9480
1048.089, 197.1646
1048.571, 197.2645
1049.053, 197.2594
1049.535, 197.0854
1050.017, 196.5210
1050.499, 195.7206
1050.981, 195.3239
1051.463, 195.7408
1051.945, 195.7332
1052.428, 194.5887
1052.910, 193.5171
1053.392, 192.9187
1053.874, 192.7705
1054.356, 193.1875
1054.838, 194.0107
1055.320, 194.7938
1055.802, 195.5443
1056.285, 195.9107
1056.767, 195.7469
1057.249, 195.2321
1057.731, 194.0729
1058.213, 192.9030
1058.695, 192.3634
1059.177, 192.3560
1059.659, 192.4182
1060.141, 192.4240
1060.624, 192.5915
1061.106, 193.0509
1061.588, 193.6243
1062.070, 194.5276
1062.552, 195.2571
1063.034, 195.0202
1063.516, 194.2291
1063.998, 194.1319
1064.480, 195.1398
1064.963, 195.9304
1065.445, 196.1466
1065.927, 195.8101
1066.409, 194.3212
1066.891, 192.7903
1067.373, 192.2567
1067.855, 192.5866
1068.337, 193.4018
1068.820, 194.6604
1069.302, 195.3875
1069.784, 194.8624
1070.266, 194.0820
1070.748, 193.1201
1071.230, 192.5311
1071.712, 193.1313
1072.194, 194.3947
1072.677, 195.3020
1073.159, 195.6166
1073.641, 195.3469
1074.123, 193.9491
1074.605, 192.6646
1075.087, 192.0922
1075.569, 191.9360
1076.051, 192.0633
1076.533, 192.3547
1077.016, 192.7825
1077.498, 193.2873
1077.980, 193.3372
1078.462, 192.2007
1078.944, 191.3004
1079.426, 191.7712
1079.908, 192.3178
1080.390, 191.6786
1080.872, 190.4965
1081.354, 189.7924
1081.837, 189.7369
1082.319, 190.0899
1082.801, 191.1326
1083.283, 191.8380
1083.765, 191.2924
1084.247, 190.6848
1084.729, 191.0900
1085.211, 191.8501
1085.694, 191.9121
1086.176, 191.3285
1086.658, 191.1088
1087.140, 191.8708
1087.622, 192.2080
1088.104, 190.9416
1088.586, 189.7188
1089.068, 189.7155
1089.551, 190.2458
1090.033, 190.4498
1090.515, 190.3898
1090.997, 190.7464
1091.479, 191.9509
1091.961, 192.4350
1092.443, 190.8054
1092.925, 189.2857
1093.407, 188.9741
1093.890, 189.3835
1094.372, 190.4401
1094.854, 191.6872
1095.336, 192.1532
1095.818, 191.5710
1096.300, 190.8988
1096.782, 189.8170
1097.264, 189.5245
1097.746, 191.6779
1098.229, 193.6770
1098.711, 193.0041
1099.193, 190.8505
1099.675, 189.5824
1100.157, 189.5358
1100.639, 189.5736
1101.121, 189.1970
1101.603, 189.1826
1102.086, 190.3674
1102.568, 191.3022
1103.050, 190.6379
1103.532, 189.4259
1104.014, 189.3816
1104.496, 190.4575
1104.978, 190.7701
1105.460, 189.3799
1105.943, 188.2675
1106.425, 187.4922
1106.907, 187.3509
1107.389, 188.4311
1107.871, 189.8704
1108.353, 190.9600
1108.835, 191.6181
1109.317, 191.5635
1109.799, 190.0957
1110.281, 189.6074
1110.764, 191.5544
1111.246, 192.7924
1111.728, 191.2590
1112.210, 189.7579
1112.692, 191.4057
1113.174, 194.6004
1113.656, 194.9079
1114.138, 191.3514
1114.621, 189.3411
1115.103, 189.7703
1115.585, 190.3081
1116.067, 190.7266
1116.549, 190.9778
1117.031, 190.8422
1117.513, 190.6771
1117.995, 191.1837
1118.478, 192.3748
1118.960, 192.9177
1119.442, 192.6679
1119.924, 192.0351
1120.406, 190.5914
1120.888, 189.7759
1121.370, 190.5638
1121.852, 191.6827
1122.334, 191.5765
1122.817, 191.9335
1123.299, 191.8714
1123.781, 191.2415
1124.263, 191.2393
1124.745, 189.7711
1125.227, 189.2588
1125.709, 190.8237
1126.191, 192.2519
1126.673, 191.5273
1127.156, 192.3428
1127.638, 189.5869
1128.120, 191.2699
1128.602, 191.0739
1129.084, 188.6781
1129.566, 188.0149
1130.048, 190.0973
1130.530, 191.7266
1131.013, 190.9121
1131.495, 189.4803
1131.977, 190.3982
1132.459, 189.7730
1132.941, 189.5152
1133.423, 190.4027
1133.905, 189.5030
1134.387, 190.4757
1134.870, 191.3743
1135.352, 191.4316
1135.834, 190.8471
1136.316, 189.6289
1136.798, 188.3970
1137.280, 188.8091
1137.762, 190.2858
1138.244, 190.5724
1138.726, 189.8800
1139.208, 189.9492
1139.691, 191.0700
1140.173, 191.9086
1140.655, 191.6292
1141.137, 190.7485
1141.619, 189.5352
1142.101, 188.4269
1142.583, 188.1557
1143.065, 188.6370
1143.548, 190.1576
1144.030, 192.2260
1144.512, 192.9760
1144.994, 191.7614
1145.476, 190.6171
1145.958, 191.5313
1146.440, 192.8064
1146.922, 192.9081
1147.405, 192.2242
1147.887, 190.5526
1148.369, 188.7530
1148.851, 188.7903
1149.333, 190.6644
1149.815, 191.8116
1150.297, 190.6118
1150.779, 189.6045
1151.261, 190.8657
1151.744, 192.2229
1152.226, 191.5499
1152.708, 190.4499
1153.190, 191.3394
1153.672, 193.5755
1154.154, 194.5747
1154.636, 193.6329
1155.118, 192.4108
1155.600, 190.5444
1156.083, 189.6421
1156.565, 191.1103
1157.047, 192.8593
1157.529, 193.4718
1158.011, 193.3720
1158.493, 193.2713
1158.975, 193.2126
1159.457, 193.1555
1159.940, 193.2047
1160.422, 193.0701
1160.904, 192.3253
1161.386, 192.0244
1161.868, 192.9760
1162.350, 193.9824
1162.832, 193.9591
1163.314, 193.1325
1163.796, 192.0864
1164.279, 190.5917
1164.761, 190.2765
1165.243, 191.5145
1165.725, 192.6932
1166.207, 193.6481
1166.689, 193.9160
1167.171, 193.0243
1167.653, 191.9260
1168.135, 192.0227
1168.618, 193.0974
1169.100, 194.1005
1169.582, 195.0198
1170.064, 194.9314
1170.546, 193.7842
1171.028, 193.0833
1171.510, 193.3287
1171.992, 193.5174
1172.474, 192.7534
1172.957, 191.9123
1173.439, 193.0021
1173.921, 195.0945
1174.403, 195.3133
1174.885, 194.0971
1175.367, 192.8219
1175.849, 191.8609
1176.331, 191.6843
1176.814, 192.4618
1177.296, 193.2833
1177.778, 193.1585
1178.260, 192.9127
1178.742, 194.0231
1179.224, 195.2178
1179.706, 194.1690
1180.188, 192.0406
1180.671, 191.6152
1181.153, 193.0805
1181.635, 194.2783
1182.117, 194.3113
1182.599, 193.8360
1183.081, 192.6372
1183.563, 191.7124
1184.045, 192.0958
1184.527, 192.7059
1185.010, 192.2916
1185.492, 191.2781
1185.974, 190.8940
1186.456, 191.3530
1186.938, 191.5254
1187.420, 190.3824
1187.902, 190.2315
1188.384, 192.4854
1188.866, 194.5093
1189.349, 195.0506
1189.831, 194.9385
1190.313, 195.0295
1190.795, 195.1707
1191.277, 194.6536
1191.759, 194.6350
1192.241, 194.5297
1192.723, 193.7646
1193.206, 194.1375
1193.688, 193.0298
1194.170, 192.2850
1194.652, 193.0872
1195.134, 194.4306
1195.616, 194.9848
1196.098, 194.7819
1196.580, 193.5271
1197.063, 191.4452
1197.545, 191.0358
1198.027, 192.2824
1198.509, 193.2362
1198.991, 193.3226
1199.473, 192.7937
1199.955, 191.7216
1200.437, 190.9665
1200.919, 191.8457
1201.401, 193.6652
1201.884, 195.8939
1202.366, 197.8029
1202.848, 197.6789
1203.330, 195.9736
1203.812, 194.3517
1204.294, 193.3665
1204.776, 192.9119
1205.258, 193.0360
1205.741, 193.4601
1206.223, 194.0950
1206.705, 194.8662
1207.187, 196.0834
1207.669, 197.1368
1208.151, 197.1521
1208.633, 196.3617
1209.115, 195.6527
1209.598, 195.1294
1210.080, 194.9336
1210.562, 195.6506
1211.044, 195.8572
1211.526, 194.6675
1212.008, 193.6713
1212.490, 193.7947
1212.972, 194.2666
1213.454, 194.1315
1213.937, 193.5718
1214.419, 193.5343
1214.901, 194.2091
1215.383, 194.2862
1215.865, 193.5186
1216.347, 193.9308
1216.829, 196.1996
1217.311, 197.6087
1217.793, 196.4823
1218.276, 194.4237
1218.758, 193.5225
1219.240, 193.4154
1219.722, 193.0034
1220.204, 192.4963
1220.686, 192.8329
1221.168, 193.8136
1221.650, 194.3587
1222.133, 194.2835
1222.615, 194.3090
1223.097, 194.8683
1223.579, 195.3706
1224.061, 195.3152
1224.543, 194.9087
1225.025, 193.7433
1225.507, 192.8337
1225.990, 194.0840
1226.472, 196.2421
1226.954, 196.4689
1227.436, 194.5278
1227.918, 193.1530
1228.400, 193.4190
1228.882, 193.7015
1229.364, 193.5114
1229.846, 193.4238
1230.328, 193.9045
1230.811, 194.3196
1231.293, 194.0072
1231.775, 193.4306
1232.257, 193.5147
1232.739, 194.2528
1233.221, 194.5779
1233.703, 194.3251
1234.185, 194.4670
1234.668, 195.1961
1235.150, 195.5261
1235.632, 195.0608
1236.114, 194.7941
1236.596, 195.5638
1237.078, 196.6621
1237.560, 196.7605
1238.042, 196.2198
1238.525, 196.2536
1239.007, 196.6850
1239.489, 197.0168
1239.971, 197.1743
1240.453, 197.0566
1240.935, 196.7095
1241.417, 196.6602
1241.899, 197.3065
1242.381, 198.0943
1242.864, 198.9715
1243.346, 199.3847
1243.828, 198.5896
1244.310, 197.3059
1244.792, 196.0642
1245.274, 195.1070
1245.756, 194.9579
1246.238, 195.6769
1246.720, 195.8678
1247.203, 194.4539
1247.685, 193.9174
1248.167, 195.1676
1248.649, 196.1734
1249.131, 196.2115
1249.613, 195.9608
1250.095, 195.7685
1250.577, 195.9077
1251.059, 197.1981
1251.542, 199.3881
1252.024, 198.8593
1252.506, 195.6425
1252.988, 194.9849
1253.470, 197.1847
1253.952, 198.1560
1254.434, 196.7240
1254.916, 195.6301
1255.399, 196.9019
1255.881, 198.3603
1256.363, 196.3799
1256.845, 193.6846
1257.327, 195.1740
1257.809, 193.5143
1258.291, 197.0941
1258.773, 193.9920
1259.255, 193.2274
1259.738, 195.3774
1260.220, 197.3043
1260.702, 198.0026
1261.184, 198.0986
1261.666, 197.5556
1262.148, 196.7720
1262.630, 195.4014
1263.112, 194.3812
1263.594, 194.4714
1264.077, 195.2427
1264.559, 196.1877
1265.041, 197.2558
1265.523, 197.9695
1266.005, 198.2441
1266.487, 198.7526
1266.969, 199.6056
1267.451, 199.6342
1267.934, 198.5354
1268.416, 197.4779
1268.898, 197.1073
1269.380, 197.1362
1269.862, 197.2441
1270.344, 197.4894
1270.826, 198.3281
1271.308, 199.1733
1271.791, 198.5111
1272.273, 197.1202
1272.755, 196.9124
1273.237, 197.8475
1273.719, 198.4178
1274.201, 198.0966
1274.683, 197.6900
1275.165, 197.4202
1275.647, 197.3344
1276.130, 197.5952
1276.612, 197.8756
1277.094, 198.1780
1277.576, 198.2256
1278.058, 197.3968
1278.540, 196.2420
1279.022, 196.3741
1279.504, 197.9084
1279.986, 199.2127
1280.469, 200.3298
1280.951, 200.7971
1281.433, 200.5341
1281.915, 199.9836
1282.397, 199.2980
1282.879, 198.9321
1283.361, 199.2589
1283.843, 200.0264
1284.326, 200.9411
1284.808, 201.9898
##END=



