##NAMES=Beryllonite
##RRUFFID=R060552
##IDEAL CHEMISTRY=NaBePO_4_
##LOCALITY=Afghanistan
##OWNER=RRUFF
##SOURCE=Gemological Institute of America
##DESCRIPTION=Colorless fragment
##STATUS=The identification of this mineral has been confirmed by X-ray diffraction and chemical analysis
##URL=rruff.info/R060552
##MEASURED CHEMISTRY=Na_1.00_Be_1.00_P_1.00_O_4_ ; Be not measured but estimated by difference and stoichiometry
90.52570, 0.0000000E+00
91.00781, 17.08822
91.48993, 16.83550
91.97205, 16.73497
92.45416, 16.79216
92.93628, 16.99991
93.41840, 17.40226
93.90051, 18.10955
94.38263, 18.83340
94.86475, 18.97295
95.34686, 18.53477
95.82898, 18.14698
96.31110, 18.51217
96.79321, 19.53356
97.27533, 20.09892
97.75745, 19.68046
98.23956, 18.64683
98.72168, 18.72868
99.20380, 20.17526
99.68591, 21.95231
100.1680, 22.70150
100.6501, 22.06508
101.1323, 22.13511
101.6144, 23.69593
102.0965, 26.88728
102.5786, 29.83647
103.0607, 32.42908
103.5428, 34.90253
104.0250, 37.75782
104.5071, 41.23590
104.9892, 44.64674
105.4713, 47.61660
105.9534, 49.59212
106.4355, 52.29564
106.9177, 55.55410
107.3998, 59.52344
107.8819, 64.85306
108.3640, 72.12119
108.8461, 80.22179
109.3282, 88.76870
109.8104, 97.15700
110.2925, 106.4767
110.7746, 117.0775
111.2567, 128.7625
111.7388, 140.4534
112.2209, 151.7793
112.7031, 163.0820
113.1852, 174.7308
113.6673, 187.1481
114.1494, 199.4635
114.6315, 211.4314
115.1136, 223.1382
115.5958, 234.8788
116.0779, 246.7308
116.5600, 258.6833
117.0421, 270.6722
117.5242, 281.9449
118.0063, 293.9235
118.4885, 307.6290
118.9706, 323.3211
119.4527, 339.7747
119.9348, 356.3952
120.4169, 373.2341
120.8990, 390.6681
121.3812, 409.6784
121.8633, 428.9013
122.3454, 446.6527
122.8275, 462.4020
123.3096, 477.6996
123.7917, 494.0938
124.2739, 511.2599
124.7560, 528.0063
125.2381, 543.3063
125.7202, 557.7835
126.2023, 572.2914
126.6844, 587.2565
127.1666, 602.2135
127.6487, 616.3656
128.1308, 629.8180
128.6129, 643.1756
129.0950, 657.5575
129.5771, 672.5178
130.0593, 686.5011
130.5414, 698.7937
131.0235, 709.7979
131.5056, 720.2400
131.9877, 727.6194
132.4698, 729.9076
132.9520, 727.9730
133.4341, 722.0773
133.9162, 716.0093
134.3983, 710.2560
134.8804, 705.1161
135.3625, 703.2809
135.8447, 705.1180
136.3268, 709.1544
136.8089, 713.5862
137.2910, 718.4318
137.7731, 723.6661
138.2552, 728.9018
138.7374, 733.7931
139.2195, 741.6996
139.7016, 754.2031
140.1837, 768.2792
140.6658, 776.9031
141.1479, 778.0395
141.6301, 778.6799
142.1122, 782.4747
142.5943, 791.5343
143.0764, 797.8188
143.5585, 800.2314
144.0406, 799.8800
144.5228, 800.8806
145.0049, 804.4499
145.4870, 807.8303
145.9691, 809.5756
146.4512, 809.8994
146.9333, 808.3598
147.4155, 805.1977
147.8976, 800.3190
148.3797, 792.8690
148.8618, 780.5128
149.3439, 767.2060
149.8260, 755.4926
150.3082, 742.9648
150.7903, 734.5291
151.2724, 731.7061
151.7545, 734.6470
152.2366, 736.9487
152.7188, 736.6552
153.2009, 736.4464
153.6830, 738.4785
154.1651, 745.2636
154.6472, 752.0124
155.1293, 757.1684
155.6115, 760.3849
156.0936, 764.7509
156.5757, 771.0619
157.0578, 778.6914
157.5399, 786.8790
158.0220, 795.0648
158.5042, 804.1738
158.9863, 815.0635
159.4684, 828.4578
159.9505, 840.5377
160.4326, 849.5594
160.9147, 856.5974
161.3969, 863.2356
161.8790, 873.6708
162.3611, 881.2719
162.8432, 881.9186
163.3253, 873.6534
163.8074, 862.8995
164.2896, 849.7707
164.7717, 836.1765
165.2538, 825.9541
165.7359, 821.5822
166.2180, 820.7457
166.7001, 821.6409
167.1823, 823.5843
167.6644, 827.9411
168.1465, 837.9778
168.6286, 851.5891
169.1107, 862.8617
169.5928, 870.8856
170.0750, 873.9623
170.5571, 870.1718
171.0392, 858.0563
171.5213, 840.8427
172.0034, 818.2551
172.4855, 791.5995
172.9677, 767.2372
173.4498, 748.8533
173.9319, 735.1037
174.4140, 724.2086
174.8961, 716.1409
175.3782, 710.2184
175.8604, 705.7174
176.3425, 702.5792
176.8246, 700.4877
177.3067, 699.5340
177.7888, 699.4056
178.2709, 699.5074
178.7531, 699.8292
179.2352, 700.1586
179.7173, 700.0767
180.1994, 699.6002
180.6815, 699.1710
181.1636, 699.1287
181.6458, 699.4403
182.1279, 700.0350
182.6100, 701.1628
183.0921, 702.4445
183.5742, 702.7299
184.0563, 701.9380
184.5385, 701.6232
185.0206, 703.7541
185.5027, 707.8981
185.9848, 711.8793
186.4669, 714.7702
186.9490, 716.9589
187.4312, 719.9011
187.9133, 723.6592
188.3954, 727.3785
188.8775, 729.0773
189.3596, 729.1197
189.8417, 731.2336
190.3239, 738.2249
190.8060, 748.8588
191.2881, 756.1096
191.7702, 759.3376
192.2523, 761.4383
192.7344, 766.8195
193.2166, 775.4576
193.6987, 782.6386
194.1808, 786.5467
194.6629, 787.3018
195.1450, 786.7449
195.6271, 785.1660
196.1093, 781.5683
196.5914, 773.4753
197.0735, 760.4949
197.5556, 747.8437
198.0377, 737.4200
198.5198, 729.1292
199.0020, 723.0880
199.4841, 719.7258
199.9662, 717.8188
200.4483, 715.0848
200.9304, 711.2158
201.4125, 708.3546
201.8947, 707.9365
202.3768, 710.2300
202.8589, 711.4568
203.3410, 711.3566
203.8231, 710.5111
204.3052, 709.8418
204.7874, 709.2565
205.2695, 709.2225
205.7516, 709.8615
206.2337, 711.1205
206.7158, 713.5935
207.1979, 717.7572
207.6801, 722.6959
208.1622, 726.3818
208.6443, 728.5331
209.1264, 730.3919
209.6085, 732.3279
210.0906, 734.1494
210.5728, 737.0808
211.0549, 741.5863
211.5370, 746.8732
212.0191, 750.9191
212.5012, 753.3077
212.9833, 755.5816
213.4655, 758.7498
213.9476, 763.5712
214.4297, 766.5270
214.9118, 767.2512
215.3939, 766.2343
215.8760, 764.1288
216.3581, 759.5438
216.8403, 756.7662
217.3224, 758.5414
217.8045, 767.0782
218.2866, 773.2109
218.7687, 775.7836
219.2508, 776.1709
219.7330, 777.9211
220.2151, 781.1670
220.6972, 785.4665
221.1793, 790.8651
221.6614, 798.3483
222.1435, 804.1501
222.6257, 807.2068
223.1078, 808.8520
223.5899, 812.9151
224.0720, 820.0604
224.5541, 828.6116
225.0362, 838.2754
225.5184, 850.0233
226.0005, 860.2133
226.4826, 868.1136
226.9647, 874.6430
227.4468, 882.6104
227.9289, 892.3405
228.4111, 902.9716
228.8932, 914.0742
229.3753, 925.3143
229.8574, 938.0371
230.3395, 953.7625
230.8216, 970.5276
231.3038, 983.0636
231.7859, 990.0046
232.2680, 994.5656
232.7501, 998.2232
233.2322, 1001.607
233.7143, 1002.852
234.1965, 1003.146
234.6786, 1001.028
235.1607, 991.8955
235.6428, 971.9330
236.1249, 950.4744
236.6070, 931.4080
237.0892, 915.0529
237.5713, 900.3417
238.0534, 887.1656
238.5355, 875.6516
239.0176, 866.4573
239.4997, 861.2136
239.9819, 855.7604
240.4640, 848.1593
240.9461, 836.8230
241.4282, 827.0626
241.9103, 819.5023
242.3924, 813.3282
242.8746, 806.5103
243.3567, 798.3446
243.8388, 790.6178
244.3209, 783.8928
244.8030, 777.9750
245.2851, 773.8414
245.7673, 772.0112
246.2494, 771.7624
246.7315, 771.5953
247.2136, 771.5842
247.6957, 771.5526
248.1778, 771.5432
248.6600, 771.8597
249.1421, 771.1779
249.6242, 768.8549
250.1063, 765.8684
250.5884, 764.1541
251.0705, 764.1974
251.5527, 764.6779
252.0348, 765.1800
252.5169, 765.7523
252.9990, 766.1405
253.4811, 766.2142
253.9632, 766.1827
254.4454, 766.3962
254.9275, 766.8414
255.4096, 767.5492
255.8917, 768.5988
256.3738, 770.0931
256.8560, 771.3514
257.3381, 772.0381
257.8202, 772.7806
258.3023, 774.8199
258.7844, 779.1139
259.2665, 782.5510
259.7487, 783.7654
260.2308, 782.2092
260.7129, 782.2072
261.1950, 783.9469
261.6771, 787.0090
262.1592, 791.1348
262.6414, 796.9495
263.1235, 802.1439
263.6056, 805.9078
264.0877, 808.1805
264.5698, 810.4391
265.0519, 812.7928
265.5341, 814.9769
266.0162, 816.8187
266.4983, 818.4891
266.9804, 819.2070
267.4625, 818.4854
267.9446, 816.3625
268.4268, 814.8896
268.9089, 814.2216
269.3910, 813.9797
269.8731, 813.7608
270.3552, 813.4957
270.8373, 813.4824
271.3195, 813.5662
271.8016, 813.8562
272.2837, 815.7432
272.7658, 819.7514
273.2479, 824.2285
273.7300, 827.4980
274.2122, 829.2338
274.6943, 831.8542
275.1764, 836.3259
275.6585, 842.0540
276.1406, 845.6194
276.6227, 846.5465
277.1049, 846.9144
277.5870, 848.3616
278.0691, 850.9626
278.5512, 853.9456
279.0333, 857.5361
279.5154, 861.2519
279.9976, 863.3713
280.4797, 863.7371
280.9618, 863.3219
281.4439, 862.3982
281.9260, 860.9540
282.4081, 860.6055
282.8903, 861.9557
283.3724, 864.0654
283.8545, 864.6667
284.3366, 863.6740
284.8187, 862.0570
285.3008, 859.9850
285.7830, 857.5638
286.2651, 856.3165
286.7472, 856.4982
287.2293, 857.6456
287.7114, 859.1060
288.1935, 860.8737
288.6757, 862.6393
289.1578, 864.1461
289.6399, 865.4695
290.1220, 866.7965
290.6041, 868.0145
291.0862, 869.6444
291.5684, 872.7468
292.0505, 877.1857
292.5326, 881.5361
293.0147, 885.2001
293.4968, 888.2554
293.9789, 890.9195
294.4611, 893.1119
294.9432, 895.3154
295.4253, 898.5461
295.9074, 902.4520
296.3895, 905.4188
296.8716, 906.0318
297.3538, 905.4500
297.8359, 906.1174
298.3180, 908.0822
298.8001, 910.3781
299.2822, 911.8412
299.7643, 912.9188
300.2465, 914.7273
300.7286, 917.4246
301.2107, 921.2064
301.6928, 927.0629
302.1749, 934.8043
302.6570, 942.3051
303.1392, 948.2341
303.6213, 952.6815
304.1034, 955.7181
304.5855, 957.6849
305.0676, 957.9358
305.5497, 956.0544
306.0319, 952.0134
306.5140, 945.5576
306.9961, 936.0891
307.4782, 924.3494
307.9603, 910.7828
308.4424, 894.7316
308.9246, 878.4787
309.4067, 862.7042
309.8888, 848.0051
310.3709, 835.8288
310.8530, 827.5609
311.3351, 821.9802
311.8173, 818.4213
312.2994, 817.2571
312.7815, 816.4719
313.2636, 814.6860
313.7457, 812.4750
314.2278, 810.8626
314.7100, 810.5020
315.1921, 810.7517
315.6742, 811.4324
316.1563, 812.6491
316.6384, 813.5359
317.1205, 813.2205
317.6027, 812.4910
318.0848, 812.3463
318.5669, 813.6592
319.0490, 815.1113
319.5311, 816.1552
320.0132, 816.7429
320.4954, 817.3600
320.9775, 817.7142
321.4596, 818.3457
321.9417, 819.7126
322.4238, 822.2175
322.9059, 825.1355
323.3881, 828.8038
323.8702, 833.0471
324.3523, 836.2536
324.8344, 837.2406
325.3165, 837.7530
325.7986, 838.8360
326.2808, 840.0916
326.7629, 842.4982
327.2450, 846.8618
327.7271, 852.6243
328.2092, 857.5698
328.6913, 860.0597
329.1735, 863.1578
329.6556, 868.3148
330.1377, 877.5795
330.6198, 884.9484
331.1019, 889.2715
331.5840, 892.0114
332.0662, 896.0076
332.5483, 901.6489
333.0304, 908.0085
333.5125, 914.5430
333.9946, 921.0688
334.4767, 929.0352
334.9589, 938.5312
335.4410, 949.2600
335.9231, 960.9329
336.4052, 973.5787
336.8873, 986.8111
337.3694, 1000.305
337.8515, 1014.059
338.3336, 1029.399
338.8158, 1046.876
339.2979, 1064.887
339.7800, 1081.935
340.2621, 1097.531
340.7442, 1114.802
341.2263, 1134.082
341.7085, 1155.270
342.1906, 1177.143
342.6727, 1199.914
343.1548, 1223.250
343.6369, 1246.828
344.1190, 1270.558
344.6012, 1296.333
345.0833, 1324.040
345.5654, 1354.113
346.0475, 1387.472
346.5296, 1423.897
347.0117, 1462.822
347.4939, 1503.494
347.9760, 1546.775
348.4581, 1592.428
348.9402, 1639.972
349.4223, 1690.314
349.9044, 1742.845
350.3866, 1796.942
350.8687, 1851.031
351.3508, 1906.905
351.8329, 1961.836
352.3150, 2013.582
352.7971, 2062.206
353.2793, 2103.124
353.7614, 2135.253
354.2435, 2157.652
354.7256, 2169.444
355.2077, 2172.347
355.6898, 2162.140
356.1720, 2132.724
356.6541, 2085.826
357.1362, 2029.787
357.6183, 1965.403
358.1004, 1895.708
358.5826, 1822.522
359.0647, 1744.343
359.5468, 1667.494
360.0289, 1594.070
360.5110, 1524.444
360.9931, 1459.056
361.4753, 1398.528
361.9574, 1342.742
362.4395, 1291.668
362.9216, 1245.225
363.4037, 1204.011
363.8858, 1169.915
364.3680, 1140.474
364.8501, 1112.977
365.3322, 1086.907
365.8143, 1063.082
366.2964, 1041.734
366.7785, 1022.789
367.2607, 1006.203
367.7428, 992.6419
368.2249, 980.8448
368.7070, 970.0573
369.1891, 961.4271
369.6712, 952.3212
370.1534, 941.6168
370.6355, 930.2917
371.1176, 921.5230
371.5997, 916.7119
372.0818, 912.6066
372.5639, 907.8326
373.0461, 901.9277
373.5282, 896.7020
374.0103, 892.1666
374.4924, 888.1603
374.9745, 884.5563
375.4566, 881.4164
375.9388, 878.3669
376.4209, 875.0776
376.9030, 871.6234
377.3851, 870.2181
377.8672, 871.5907
378.3493, 872.7368
378.8315, 869.8787
379.3136, 862.8994
379.7957, 858.2291
380.2778, 857.4749
380.7599, 859.2871
381.2420, 860.4922
381.7242, 861.0701
382.2063, 861.7983
382.6884, 863.3099
383.1705, 865.3837
383.6526, 867.1502
384.1347, 868.4174
384.6169, 869.7185
385.0990, 871.6133
385.5811, 874.0520
386.0632, 876.8275
386.5453, 880.2895
387.0274, 883.8340
387.5096, 886.3329
387.9917, 887.7842
388.4738, 889.5098
388.9559, 891.9920
389.4380, 895.4819
389.9201, 900.4559
390.4023, 908.1774
390.8844, 916.1139
391.3665, 921.8282
391.8486, 926.1588
392.3307, 931.9753
392.8128, 941.3406
393.2950, 952.2052
393.7771, 963.2348
394.2592, 973.9058
394.7413, 985.4291
395.2234, 998.5078
395.7055, 1012.519
396.1877, 1026.505
396.6698, 1040.320
397.1519, 1054.003
397.6340, 1068.255
398.1161, 1083.421
398.5982, 1096.078
399.0804, 1109.138
399.5625, 1117.704
400.0446, 1118.176
400.5267, 1108.049
401.0088, 1093.274
401.4909, 1072.295
401.9731, 1046.926
402.4552, 1024.860
402.9373, 1007.236
403.4194, 991.0524
403.9015, 975.0240
404.3836, 959.1603
404.8658, 943.0117
405.3479, 925.8666
405.8300, 909.5927
406.3121, 896.7323
406.7942, 887.3818
407.2763, 880.7592
407.7585, 877.2081
408.2406, 876.2243
408.7227, 875.2978
409.2048, 874.4512
409.6869, 873.4276
410.1690, 872.0247
410.6512, 870.2616
411.1333, 867.9980
411.6154, 864.8324
412.0975, 861.8597
412.5796, 861.0895
413.0617, 862.1503
413.5439, 863.1468
414.0260, 862.5490
414.5081, 861.4188
414.9902, 861.3256
415.4723, 862.4455
415.9544, 863.9686
416.4366, 865.3160
416.9187, 866.6246
417.4008, 868.0892
417.8829, 870.4788
418.3650, 872.4609
418.8471, 872.9711
419.3293, 872.2353
419.8114, 871.6548
420.2935, 871.9216
420.7756, 872.4888
421.2577, 873.0709
421.7398, 874.0126
422.2220, 874.2343
422.7041, 872.6634
423.1862, 870.3500
423.6683, 869.1716
424.1504, 869.7323
424.6325, 871.0773
425.1147, 873.2773
425.5968, 876.5543
426.0789, 878.8005
426.5610, 878.6059
427.0431, 878.6595
427.5252, 881.2320
428.0074, 887.2253
428.4895, 893.7189
428.9716, 900.7198
429.4537, 907.8130
429.9358, 913.4187
430.4179, 917.1564
430.9001, 920.6780
431.3822, 925.3285
431.8643, 931.1603
432.3464, 934.4230
432.8285, 934.9123
433.3106, 933.4835
433.7928, 930.7480
434.2749, 926.8280
434.7570, 922.6395
435.2391, 917.9501
435.7212, 913.5766
436.2033, 911.3522
436.6855, 911.1627
437.1676, 911.6223
437.6497, 911.5856
438.1318, 911.6250
438.6139, 912.5543
439.0960, 914.4647
439.5782, 917.4210
440.0603, 921.5070
440.5424, 926.6931
441.0245, 932.8425
441.5066, 940.2833
441.9887, 948.4011
442.4709, 957.1174
442.9530, 966.3795
443.4351, 975.3741
443.9172, 982.4740
444.3993, 989.8968
444.8814, 999.1122
445.3636, 1010.245
445.8457, 1023.408
446.3278, 1039.744
446.8099, 1058.058
447.2920, 1075.748
447.7741, 1089.477
448.2563, 1106.370
448.7384, 1128.419
449.2205, 1156.282
449.7026, 1185.732
450.1847, 1216.770
450.6668, 1248.981
451.1490, 1282.104
451.6311, 1316.629
452.1132, 1350.357
452.5953, 1382.550
453.0774, 1414.299
453.5595, 1451.459
454.0417, 1494.869
454.5238, 1537.139
455.0059, 1575.202
455.4880, 1608.941
455.9701, 1638.660
456.4522, 1663.678
456.9344, 1688.158
457.4165, 1715.787
457.8986, 1746.533
458.3807, 1778.990
458.8628, 1810.209
459.3449, 1846.172
459.8271, 1894.752
460.3092, 1954.731
460.7913, 2021.500
461.2734, 2094.407
461.7555, 2171.389
462.2376, 2252.692
462.7198, 2338.647
463.2019, 2423.844
463.6840, 2509.137
464.1661, 2590.351
464.6482, 2662.429
465.1303, 2733.769
465.6125, 2785.640
466.0946, 2811.099
466.5767, 2811.540
467.0588, 2797.832
467.5409, 2771.969
468.0230, 2731.094
468.5052, 2673.251
468.9873, 2595.163
469.4694, 2508.042
469.9515, 2410.649
470.4336, 2305.823
470.9157, 2193.921
471.3979, 2071.825
471.8800, 1955.272
472.3621, 1846.922
472.8442, 1747.783
473.3263, 1658.202
473.8084, 1578.259
474.2906, 1507.086
474.7727, 1445.553
475.2548, 1392.661
475.7369, 1343.814
476.2190, 1298.410
476.7011, 1256.978
477.1833, 1219.497
477.6654, 1185.944
478.1475, 1156.278
478.6296, 1131.302
479.1117, 1109.637
479.5938, 1090.195
480.0760, 1072.862
480.5581, 1057.488
481.0402, 1044.489
481.5223, 1032.910
482.0044, 1021.814
482.4865, 1010.733
482.9687, 1001.285
483.4508, 994.7614
483.9329, 989.9939
484.4150, 985.4006
484.8971, 980.1838
485.3792, 975.5908
485.8614, 972.1862
486.3435, 969.8555
486.8256, 967.0095
487.3077, 962.9880
487.7898, 959.2652
488.2719, 956.6392
488.7541, 955.3810
489.2362, 954.5414
489.7183, 954.2171
490.2004, 954.1747
490.6825, 954.2760
491.1646, 954.6044
491.6468, 954.2026
492.1289, 952.9172
492.6110, 950.6385
493.0931, 946.5879
493.5752, 940.7637
494.0573, 934.7010
494.5395, 929.0461
495.0216, 923.9823
495.5037, 919.9075
495.9858, 917.0686
496.4679, 914.5144
496.9500, 911.3151
497.4322, 907.8680
497.9143, 904.8878
498.3964, 902.4127
498.8785, 900.7009
499.3606, 900.1636
499.8427, 900.6261
500.3249, 901.2994
500.8070, 902.0801
501.2891, 902.8728
501.7712, 903.6334
502.2533, 904.3771
502.7354, 905.0294
503.2176, 905.6241
503.6997, 906.0931
504.1818, 906.2375
504.6639, 905.1271
505.1460, 905.3805
505.6281, 907.3709
506.1103, 910.9854
506.5924, 916.0770
507.0745, 923.1208
507.5566, 929.9198
508.0387, 934.7679
508.5208, 937.8447
509.0030, 943.2513
509.4851, 951.3153
509.9672, 959.8690
510.4493, 966.1876
510.9314, 971.0166
511.4135, 976.7615
511.8957, 983.6465
512.3778, 992.2649
512.8599, 1004.102
513.3420, 1018.374
513.8242, 1032.703
514.3063, 1043.992
514.7884, 1056.438
515.2705, 1073.597
515.7526, 1095.647
516.2347, 1119.150
516.7169, 1142.063
517.1990, 1166.250
517.6811, 1193.136
518.1632, 1223.662
518.6453, 1255.894
519.1274, 1289.794
519.6096, 1325.405
520.0917, 1362.376
520.5738, 1400.527
521.0559, 1440.289
521.5380, 1483.694
522.0201, 1530.083
522.5023, 1569.068
522.9844, 1602.247
523.4665, 1623.665
523.9486, 1628.088
524.4307, 1615.989
524.9128, 1593.165
525.3950, 1558.291
525.8771, 1519.923
526.3592, 1486.439
526.8413, 1458.692
527.3234, 1438.791
527.8055, 1429.692
528.2877, 1427.050
528.7698, 1428.610
529.2519, 1433.096
529.7340, 1435.156
530.2161, 1434.863
530.6982, 1428.892
531.1804, 1414.222
531.6625, 1390.199
532.1446, 1360.823
532.6267, 1323.194
533.1088, 1283.062
533.5909, 1246.326
534.0731, 1210.809
534.5552, 1182.103
535.0373, 1161.655
535.5194, 1148.017
536.0015, 1136.510
536.4836, 1126.550
536.9658, 1120.096
537.4479, 1118.011
537.9300, 1120.206
538.4121, 1125.093
538.8942, 1132.498
539.3763, 1143.245
539.8585, 1158.668
540.3406, 1178.276
540.8227, 1199.147
541.3048, 1220.979
541.7869, 1244.477
542.2690, 1270.874
542.7512, 1299.716
543.2333, 1329.869
543.7154, 1360.348
544.1975, 1392.371
544.6796, 1428.264
545.1617, 1467.237
545.6439, 1504.358
546.1260, 1546.153
546.6081, 1578.794
547.0902, 1596.034
547.5723, 1598.577
548.0544, 1579.000
548.5366, 1523.666
549.0187, 1452.480
549.5008, 1382.081
549.9829, 1307.944
550.4650, 1242.760
550.9471, 1187.515
551.4293, 1141.964
551.9114, 1104.656
552.3935, 1075.897
552.8756, 1054.036
553.3577, 1039.756
553.8398, 1031.857
554.3220, 1025.071
554.8041, 1019.367
555.2862, 1015.114
555.7683, 1012.659
556.2504, 1011.798
556.7325, 1012.152
557.2147, 1013.725
557.6968, 1016.214
558.1789, 1019.428
558.6610, 1023.391
559.1431, 1028.104
559.6252, 1033.054
560.1074, 1039.240
560.5895, 1046.779
561.0716, 1055.846
561.5537, 1066.836
562.0358, 1079.662
562.5179, 1094.760
563.0001, 1112.337
563.4822, 1132.388
563.9643, 1153.754
564.4464, 1176.462
564.9285, 1200.499
565.4106, 1226.660
565.8928, 1255.626
566.3749, 1283.705
566.8570, 1312.186
567.3391, 1336.919
567.8212, 1351.585
568.3033, 1356.801
568.7855, 1356.301
569.2676, 1352.428
569.7497, 1342.519
570.2318, 1321.409
570.7139, 1290.452
571.1960, 1253.807
571.6782, 1209.179
572.1603, 1163.419
572.6424, 1121.722
573.1245, 1084.070
573.6066, 1052.278
574.0887, 1027.375
574.5709, 1008.056
575.0530, 993.0287
575.5351, 983.9890
576.0172, 976.4424
576.4993, 970.0989
576.9814, 965.1999
577.4636, 962.3771
577.9457, 962.1319
578.4278, 962.6895
578.9099, 963.8327
579.3920, 965.3940
579.8741, 966.2375
580.3563, 966.1905
580.8384, 967.7648
581.3205, 973.2231
581.8026, 981.4617
582.2847, 989.3076
582.7668, 996.6991
583.2490, 1003.483
583.7311, 1009.130
584.2131, 1014.219
584.6953, 1019.021
585.1774, 1021.990
585.6595, 1028.468
586.1416, 1043.726
586.6237, 1063.611
587.1058, 1082.067
587.5880, 1095.553
588.0701, 1109.791
588.5522, 1126.238
589.0343, 1144.549
589.5164, 1163.535
589.9985, 1184.651
590.4807, 1204.099
590.9628, 1221.268
591.4449, 1236.228
591.9270, 1244.896
592.4091, 1247.067
592.8912, 1243.788
593.3734, 1234.309
593.8555, 1219.681
594.3376, 1204.554
594.8197, 1189.153
595.3018, 1175.333
595.7839, 1164.287
596.2661, 1156.461
596.7482, 1152.758
597.2303, 1155.465
597.7124, 1160.449
598.1945, 1166.307
598.6766, 1172.647
599.1588, 1178.245
599.6409, 1185.695
600.1230, 1189.530
600.6051, 1188.053
601.0872, 1181.361
601.5693, 1168.090
602.0515, 1146.601
602.5336, 1120.928
603.0157, 1092.040
603.4978, 1058.583
603.9799, 1029.605
604.4620, 1005.403
604.9442, 984.8791
605.4263, 967.4097
605.9084, 952.6200
606.3905, 939.7977
606.8726, 928.6002
607.3547, 919.0853
607.8369, 911.4951
608.3190, 905.5647
608.8011, 900.4017
609.2832, 895.3474
609.7653, 891.2010
610.2474, 888.9761
610.7296, 888.3804
611.2117, 887.3268
611.6938, 885.0244
612.1759, 882.2751
612.6580, 879.4371
613.1401, 876.5001
613.6223, 873.3378
614.1044, 869.4581
614.5865, 866.0631
615.0686, 864.6550
615.5507, 865.5992
616.0328, 865.3381
616.5150, 863.3546
616.9971, 860.5352
617.4792, 857.7033
617.9613, 855.0593
618.4434, 853.6065
618.9255, 854.4318
619.4077, 855.7078
619.8898, 855.1077
620.3719, 853.1623
620.8540, 851.5261
621.3361, 851.0596
621.8182, 851.1247
622.3004, 851.7157
622.7825, 852.7955
623.2646, 853.0954
623.7467, 852.0306
624.2288, 850.3613
624.7109, 848.1600
625.1931, 844.6152
625.6752, 843.4742
626.1573, 845.4885
626.6394, 848.6024
627.1215, 850.9470
627.6036, 852.5167
628.0858, 853.0557
628.5679, 852.2911
629.0500, 851.0584
629.5321, 850.5405
630.0142, 850.6048
630.4963, 850.8433
630.9785, 851.0219
631.4606, 851.3904
631.9427, 852.3184
632.4248, 853.6529
632.9069, 854.8924
633.3890, 855.8078
633.8712, 856.5999
634.3533, 857.2963
634.8354, 857.8846
635.3175, 858.6697
635.7996, 859.6391
636.2817, 860.8105
636.7639, 862.1354
637.2460, 863.4980
637.7281, 865.6823
638.2102, 868.9695
638.6923, 872.2637
639.1744, 874.5557
639.6566, 875.8258
640.1387, 876.0057
640.6208, 874.9281
641.1029, 873.2244
641.5850, 871.4313
642.0671, 869.5810
642.5493, 867.6901
643.0314, 865.4133
643.5135, 863.4918
643.9956, 862.8633
644.4777, 862.9924
644.9598, 862.1757
645.4420, 858.6769
645.9241, 855.6173
646.4062, 853.9960
646.8883, 853.7691
647.3704, 853.7275
647.8525, 853.8478
648.3347, 854.2133
648.8168, 855.2349
649.2989, 856.8625
649.7810, 856.7244
650.2631, 854.6201
650.7452, 852.3300
651.2274, 851.4650
651.7095, 851.7012
652.1916, 852.5572
652.6737, 854.1271
653.1558, 855.4828
653.6379, 855.3829
654.1201, 854.8436
654.6022, 855.2048
655.0843, 859.2548
655.5664, 861.4716
656.0485, 858.6221
656.5306, 853.2769
657.0128, 851.4013
657.4949, 855.1096
657.9770, 858.2493
658.4591, 858.9630
658.9412, 857.9998
659.4233, 859.0833
659.9055, 862.4717
660.3876, 865.1190
660.8697, 864.6768
661.3518, 862.4171
661.8339, 861.4066
662.3160, 861.6221
662.7982, 862.3339
663.2803, 864.0475
663.7624, 865.4125
664.2445, 864.6845
664.7266, 861.1994
665.2087, 858.4739
665.6909, 857.9655
666.1730, 858.5406
666.6551, 859.2999
667.1372, 860.3660
667.6193, 861.2844
668.1014, 862.0045
668.5836, 862.6044
669.0657, 863.2367
669.5478, 863.9202
670.0299, 864.2819
670.5120, 864.1417
670.9941, 863.8300
671.4763, 864.0331
671.9584, 864.6051
672.4405, 864.9713
672.9226, 864.6407
673.4047, 864.1965
673.8868, 864.3938
674.3690, 864.9634
674.8511, 864.9494
675.3332, 862.9211
675.8153, 861.2183
676.2974, 861.0007
676.7795, 862.3648
677.2617, 863.5662
677.7438, 864.9464
678.2259, 865.6412
678.7080, 864.9034
679.1901, 862.5822
679.6722, 861.1452
680.1544, 860.5688
680.6365, 860.8731
681.1186, 862.9496
681.6007, 865.8508
682.0828, 866.9313
682.5649, 865.5428
683.0471, 863.8729
683.5292, 863.6637
684.0113, 864.2526
684.4934, 864.8754
684.9755, 865.4337
685.4576, 865.8463
685.9398, 866.1693
686.4219, 866.3026
686.9040, 866.1050
687.3861, 865.4678
687.8682, 864.6076
688.3503, 863.0968
688.8325, 861.7330
689.3146, 863.4246
689.7967, 868.2377
690.2788, 871.4119
690.7609, 869.7142
691.2430, 866.1558
691.7252, 866.7823
692.2073, 870.6990
692.6894, 873.8324
693.1715, 872.7670
693.6536, 870.9072
694.1357, 870.7909
694.6179, 872.4578
695.1000, 873.7690
695.5821, 874.2202
696.0642, 874.1276
696.5463, 873.3217
697.0284, 871.4373
697.5106, 871.6146
697.9927, 874.7883
698.4748, 877.8621
698.9569, 878.0134
699.4390, 875.5993
699.9211, 873.1837
700.4033, 870.8621
700.8854, 869.3646
701.3675, 870.2781
701.8496, 872.2635
702.3317, 872.8440
702.8138, 870.3561
703.2960, 869.3124
703.7781, 874.9658
704.2602, 882.1888
704.7423, 884.7028
705.2244, 875.2264
705.7065, 869.1454
706.1887, 869.0560
706.6708, 872.0081
707.1529, 872.3548
707.6350, 869.5345
708.1171, 867.3605
708.5992, 866.7602
709.0814, 867.4365
709.5635, 869.5076
710.0456, 872.5602
710.5277, 874.5959
711.0098, 874.4397
711.4919, 873.0049
711.9741, 870.0735
712.4562, 866.3005
712.9383, 864.1463
713.4204, 865.7433
713.9025, 867.9901
714.3846, 869.6367
714.8668, 870.7135
715.3489, 871.9817
715.8310, 873.5338
716.3131, 875.1212
716.7952, 876.7670
717.2773, 878.4142
717.7595, 878.8604
718.2416, 877.9642
718.7237, 878.3318
719.2058, 884.3474
719.6879, 892.1494
720.1700, 894.8326
720.6522, 891.4886
721.1343, 887.7958
721.6164, 887.2479
722.0985, 887.6227
722.5806, 886.9431
723.0627, 883.8691
723.5449, 882.1875
724.0270, 881.7500
724.5091, 883.0045
724.9912, 887.5731
725.4733, 897.0117
725.9554, 899.9805
726.4376, 894.1908
726.9197, 885.7884
727.4018, 883.3907
727.8839, 885.3648
728.3660, 886.5146
728.8481, 885.1748
729.3303, 883.4280
729.8124, 883.2719
730.2945, 883.8254
730.7766, 883.7480
731.2587, 880.8926
731.7408, 879.4050
732.2230, 881.3641
732.7051, 885.0092
733.1872, 887.1352
733.6693, 887.3504
734.1514, 887.0004
734.6335, 886.0068
735.1157, 885.0078
735.5978, 885.9532
736.0799, 888.6349
736.5620, 891.2676
737.0441, 893.0901
737.5262, 894.3916
738.0084, 895.4594
738.4905, 896.3017
738.9726, 896.9391
739.4547, 897.0787
739.9368, 897.3002
740.4189, 897.6759
740.9011, 898.2729
741.3832, 899.7767
741.8653, 903.1151
742.3474, 905.6447
742.8295, 905.9404
743.3116, 904.3394
743.7938, 903.5898
744.2759, 903.7037
744.7580, 904.1016
745.2401, 904.8107
745.7222, 905.3655
746.2043, 904.8888
746.6865, 903.3975
747.1686, 901.8394
747.6507, 901.3986
748.1328, 900.5858
748.6149, 897.9488
749.0970, 892.6851
749.5792, 889.3819
750.0613, 888.9622
750.5434, 889.5159
751.0255, 890.0606
751.5076, 890.6446
751.9897, 890.5370
752.4719, 889.6623
752.9540, 888.4130
753.4361, 886.7392
753.9182, 885.0250
754.4003, 884.1769
754.8824, 884.4208
755.3646, 884.6395
755.8467, 883.6786
756.3288, 882.5724
756.8109, 882.3524
757.2930, 883.6935
757.7751, 884.8831
758.2573, 885.9526
758.7394, 886.7300
759.2215, 886.9119
759.7036, 886.3517
760.1857, 886.2418
760.6678, 886.6766
761.1500, 887.6150
761.6321, 889.2197
762.1142, 891.2605
762.5963, 893.3090
763.0784, 895.4531
763.5605, 896.9720
764.0427, 896.7566
764.5248, 895.8423
765.0069, 895.5292
765.4890, 896.4817
765.9711, 897.5683
766.4532, 898.6793
766.9354, 899.9070
767.4175, 901.5441
767.8996, 903.7675
768.3817, 905.2924
768.8638, 905.7751
769.3459, 905.8066
769.8281, 906.2639
770.3102, 907.0364
770.7923, 907.7664
771.2744, 908.1644
771.7565, 908.7518
772.2386, 910.0571
772.7208, 911.7635
773.2029, 913.3195
773.6850, 914.5743
774.1671, 915.6819
774.6492, 916.7110
775.1313, 917.5741
775.6135, 918.1496
776.0956, 918.4641
776.5777, 918.2145
777.0598, 917.2903
777.5419, 915.7898
778.0240, 913.0614
778.5062, 909.7845
778.9883, 908.1038
779.4704, 911.4650
779.9525, 914.2221
780.4346, 911.5385
780.9167, 905.6427
781.3989, 902.0079
781.8810, 904.0645
782.3631, 905.6713
782.8452, 905.8648
783.3273, 904.8604
783.8094, 902.8625
784.2916, 899.6790
784.7737, 897.5099
785.2558, 897.4183
785.7379, 898.4577
786.2200, 899.2762
786.7021, 899.7870
787.1843, 899.6605
787.6664, 898.6281
788.1485, 897.0369
788.6306, 894.3229
789.1127, 891.0665
789.5948, 889.5820
790.0770, 891.3899
790.5591, 892.9363
791.0412, 892.9838
791.5233, 892.2824
792.0054, 894.0586
792.4875, 898.3555
792.9697, 901.9677
793.4518, 902.9971
793.9339, 902.8944
794.4160, 904.3294
794.8981, 906.6540
795.3802, 907.7206
795.8624, 904.6298
796.3445, 901.9083
796.8266, 902.0084
797.3087, 904.4697
797.7908, 906.5593
798.2729, 908.2543
798.7551, 909.5049
799.2372, 910.2613
799.7193, 910.6214
800.2014, 910.9116
800.6835, 911.1359
801.1656, 911.2531
801.6478, 910.8049
802.1299, 910.5740
802.6120, 911.7931
803.0941, 914.0413
803.5762, 916.0070
804.0583, 917.1575
804.5405, 917.8943
805.0226, 918.0456
805.5047, 917.8431
805.9868, 918.2068
806.4689, 919.2257
806.9510, 920.5365
807.4332, 922.2458
807.9153, 923.9962
808.3974, 924.6277
808.8795, 924.2762
809.3616, 923.6995
809.8438, 923.1174
810.3259, 922.6484
810.8080, 922.6251
811.2901, 922.8401
811.7722, 922.5988
812.2543, 921.0653
812.7365, 919.8347
813.2186, 919.4429
813.7007, 919.6169
814.1828, 919.1487
814.6649, 917.8303
815.1470, 917.5040
815.6292, 919.3160
816.1113, 922.0007
816.5934, 923.2112
817.0755, 923.2512
817.5576, 923.1370
818.0397, 922.9959
818.5219, 923.1945
819.0040, 924.1835
819.4861, 925.6963
819.9682, 926.8575
820.4503, 927.7386
820.9324, 928.0868
821.4146, 927.7140
821.8967, 926.8954
822.3788, 925.9966
822.8609, 925.0977
823.3430, 925.4108
823.8251, 928.2288
824.3073, 931.3107
824.7894, 932.1795
825.2715, 931.2483
825.7536, 929.4588
826.2357, 925.7533
826.7178, 922.8412
827.2000, 922.1166
827.6821, 922.5499
828.1642, 922.2630
828.6463, 920.9595
829.1284, 919.9266
829.6105, 919.3014
830.0927, 919.2692
830.5748, 921.0500
831.0569, 923.8337
831.5390, 924.6468
832.0211, 921.0295
832.5032, 917.5770
832.9854, 918.3640
833.4675, 921.1949
833.9496, 922.7322
834.4317, 921.1302
834.9138, 919.7245
835.3959, 918.3891
835.8781, 917.6575
836.3602, 918.6814
836.8423, 921.4396
837.3244, 923.9243
837.8065, 925.8799
838.2886, 926.9871
838.7708, 926.0270
839.2529, 924.1990
839.7350, 923.6649
840.2171, 926.2630
840.6992, 927.6356
841.1813, 925.4130
841.6635, 921.7903
842.1456, 919.0530
842.6277, 917.4711
843.1098, 915.9294
843.5919, 914.2322
844.0740, 912.9528
844.5562, 913.3674
845.0383, 914.7699
845.5204, 914.9120
846.0025, 913.3261
846.4846, 911.4202
846.9667, 909.6953
847.4489, 908.4398
847.9310, 908.0430
848.4131, 909.0144
848.8952, 909.6279
849.3773, 909.9316
849.8594, 909.7386
850.3416, 908.5870
850.8237, 906.5196
851.3058, 905.5822
851.7879, 905.9003
852.2700, 906.3632
852.7521, 906.0164
853.2343, 905.2969
853.7164, 904.5211
854.1985, 903.7132
854.6806, 903.5910
855.1627, 905.0803
855.6448, 906.7029
856.1270, 907.7830
856.6091, 908.3200
857.0912, 908.3124
857.5733, 907.6595
858.0554, 906.9841
858.5375, 906.6545
859.0197, 906.5850
859.5018, 906.7571
859.9839, 907.0838
860.4660, 907.0732
860.9481, 905.6732
861.4302, 904.5870
861.9124, 905.1887
862.3945, 907.2703
862.8766, 908.0633
863.3587, 907.0060
863.8408, 905.9143
864.3229, 905.2177
864.8051, 905.0696
865.2872, 906.4197
865.7693, 908.9710
866.2514, 910.9111
866.7335, 911.6002
867.2156, 911.0764
867.6978, 908.1105
868.1799, 904.0273
868.6620, 901.8201
869.1441, 903.7905
869.6262, 905.7148
870.1083, 907.3405
870.5905, 908.4100
871.0726, 908.2079
871.5547, 906.7675
872.0368, 905.2509
872.5189, 903.7293
873.0010, 902.8331
873.4832, 903.8080
873.9653, 905.7615
874.4474, 907.2673
874.9295, 908.1623
875.4116, 908.1722
875.8937, 905.7103
876.3759, 903.3355
876.8580, 903.9868
877.3401, 908.6013
877.8222, 910.6132
878.3043, 909.1777
878.7864, 906.8475
879.2686, 906.4004
879.7507, 906.9615
880.2328, 906.5485
880.7149, 904.6548
881.1970, 904.1786
881.6791, 908.7517
882.1613, 913.5611
882.6434, 915.0370
883.1255, 912.7023
883.6076, 910.5795
884.0897, 908.5633
884.5718, 907.1353
885.0540, 907.0391
885.5361, 907.7514
886.0182, 907.1888
886.5003, 905.5817
886.9824, 904.9100
887.4645, 907.9279
887.9467, 910.8561
888.4288, 910.6559
888.9109, 907.6583
889.3930, 906.7945
889.8751, 909.5501
890.3572, 911.3928
890.8394, 910.4091
891.3215, 907.9022
891.8036, 907.7493
892.2857, 909.5644
892.7678, 911.2405
893.2499, 911.6918
893.7321, 911.8552
894.2142, 912.5600
894.6963, 913.4728
895.1784, 913.9223
895.6605, 912.6780
896.1426, 912.7959
896.6248, 915.3491
897.1069, 918.4392
897.5890, 918.7180
898.0711, 916.5530
898.5532, 915.7405
899.0353, 917.2191
899.5175, 918.8574
899.9996, 918.3403
900.4817, 916.9761
900.9638, 916.3465
901.4459, 917.0181
901.9280, 917.5461
902.4102, 917.5196
902.8923, 917.5844
903.3744, 918.3727
903.8565, 919.9144
904.3386, 920.2869
904.8207, 919.4221
905.3029, 919.1155
905.7850, 921.8465
906.2671, 925.1908
906.7492, 926.4024
907.2313, 925.4445
907.7134, 924.2424
908.1956, 922.7698
908.6777, 921.7963
909.1598, 921.3613
909.6419, 921.6295
910.1240, 923.9955
910.6061, 928.5052
911.0883, 932.0369
911.5704, 932.8551
912.0525, 932.4355
912.5346, 932.2576
913.0167, 932.3684
913.4988, 932.8718
913.9810, 934.4335
914.4631, 935.5921
914.9452, 935.9293
915.4273, 935.8130
915.9094, 935.6234
916.3915, 935.3196
916.8737, 935.6468
917.3558, 936.8467
917.8379, 938.0529
918.3200, 938.0930
918.8021, 937.5740
919.2842, 937.3747
919.7664, 937.6951
920.2485, 938.1650
920.7306, 938.4427
921.2127, 939.0577
921.6948, 940.5496
922.1769, 943.0530
922.6591, 944.2474
923.1412, 944.0436
923.6233, 943.3734
924.1054, 942.9808
924.5875, 942.4698
925.0696, 940.4341
925.5518, 937.4319
926.0339, 936.4976
926.5160, 941.6666
926.9981, 945.9124
927.4802, 946.3051
927.9623, 944.2338
928.4445, 944.1971
928.9266, 946.4156
929.4087, 947.9684
929.8908, 947.9346
930.3729, 946.9795
930.8550, 944.9252
931.3372, 942.8529
931.8193, 942.8865
932.3014, 947.7851
932.7835, 951.2781
933.2656, 950.9731
933.7477, 949.4022
934.2299, 948.6348
934.7120, 948.7057
935.1941, 949.4769
935.6762, 950.9871
936.1583, 952.8098
936.6404, 954.5897
937.1226, 956.4059
937.6047, 958.8647
938.0868, 961.9889
938.5689, 963.2037
939.0510, 958.8958
939.5331, 955.5255
940.0153, 956.3524
940.4974, 960.3996
940.9795, 960.1050
941.4616, 955.3655
941.9437, 952.3480
942.4258, 955.3710
942.9080, 959.8977
943.3901, 959.9949
943.8722, 957.4659
944.3543, 956.1699
944.8364, 958.4301
945.3185, 960.5854
945.8007, 962.0422
946.2828, 963.2099
946.7649, 964.7935
947.2470, 966.7736
947.7291, 968.1203
948.2112, 968.6884
948.6934, 968.7059
949.1755, 967.9482
949.6576, 967.0032
950.1397, 966.3920
950.6218, 966.1146
951.1039, 966.6367
951.5861, 967.9851
952.0682, 970.1237
952.5503, 973.3610
953.0324, 977.4383
953.5145, 980.5702
953.9966, 982.7858
954.4788, 984.5898
954.9609, 986.5221
955.4430, 987.9629
955.9251, 987.5009
956.4072, 986.1799
956.8893, 986.9328
957.3715, 992.6942
957.8536, 995.9103
958.3357, 994.6583
958.8178, 991.8777
959.2999, 992.2346
959.7820, 995.1885
960.2642, 998.2819
960.7463, 1001.042
961.2284, 1004.047
961.7105, 1008.636
962.1926, 1013.068
962.6747, 1015.695
963.1569, 1016.006
963.6390, 1016.279
964.1211, 1016.314
964.6032, 1016.869
965.0853, 1018.772
965.5674, 1021.451
966.0496, 1023.229
966.5317, 1024.212
967.0138, 1024.954
967.4959, 1024.348
967.9780, 1025.057
968.4601, 1029.454
968.9423, 1035.919
969.4244, 1040.503
969.9065, 1042.673
970.3886, 1045.642
970.8707, 1050.403
971.3528, 1054.895
971.8350, 1054.948
972.3171, 1053.211
972.7992, 1054.863
973.2813, 1061.637
973.7634, 1068.323
974.2455, 1072.924
974.7277, 1076.841
975.2098, 1080.466
975.6919, 1083.766
976.1740, 1089.757
976.6561, 1098.577
977.1382, 1106.990
977.6204, 1112.844
978.1025, 1117.384
978.5846, 1121.420
979.0667, 1125.364
979.5488, 1130.501
980.0309, 1138.630
980.5131, 1145.848
980.9952, 1150.625
981.4773, 1155.130
981.9594, 1163.602
982.4415, 1175.450
982.9236, 1186.099
983.4058, 1194.451
983.8879, 1202.356
984.3700, 1209.961
984.8521, 1218.738
985.3342, 1230.459
985.8163, 1246.099
986.2985, 1261.020
986.7806, 1275.263
987.2627, 1288.550
987.7448, 1299.425
988.2269, 1309.917
988.7090, 1326.994
989.1912, 1349.551
989.6733, 1372.921
990.1554, 1395.045
990.6375, 1417.349
991.1196, 1438.274
991.6017, 1460.353
992.0839, 1487.401
992.5660, 1519.928
993.0481, 1555.140
993.5302, 1592.773
994.0123, 1633.471
994.4944, 1677.671
994.9766, 1725.583
995.4587, 1777.219
995.9408, 1832.061
996.4229, 1891.813
996.9050, 1956.592
997.3871, 2027.287
997.8693, 2102.552
998.3514, 2183.763
998.8335, 2275.895
999.3156, 2378.323
999.7977, 2488.172
1000.280, 2602.572
1000.762, 2723.855
1001.244, 2854.237
1001.726, 2992.880
1002.208, 3139.164
1002.690, 3290.553
1003.173, 3454.141
1003.655, 3629.246
1004.137, 3815.958
1004.619, 4011.607
1005.101, 4218.678
1005.583, 4434.406
1006.065, 4661.249
1006.547, 4896.826
1007.029, 5149.868
1007.512, 5405.458
1007.994, 5660.271
1008.476, 5912.516
1008.958, 6147.091
1009.440, 6366.985
1009.922, 6551.388
1010.404, 6698.072
1010.886, 6797.324
1011.369, 6843.448
1011.851, 6831.291
1012.333, 6751.636
1012.815, 6591.966
1013.297, 6384.265
1013.779, 6123.724
1014.261, 5831.855
1014.743, 5515.365
1015.225, 5173.812
1015.708, 4844.360
1016.190, 4527.399
1016.672, 4228.933
1017.154, 3955.087
1017.636, 3703.229
1018.118, 3470.988
1018.600, 3261.320
1019.082, 3078.173
1019.565, 2925.710
1020.047, 2789.286
1020.529, 2666.530
1021.011, 2558.523
1021.493, 2467.952
1021.975, 2391.075
1022.457, 2320.039
1022.939, 2253.333
1023.421, 2194.304
1023.904, 2145.490
1024.386, 2104.335
1024.868, 2069.131
1025.350, 2039.514
1025.832, 2012.518
1026.314, 1988.148
1026.796, 1964.975
1027.278, 1942.962
1027.760, 1920.976
1028.243, 1897.281
1028.725, 1872.967
1029.207, 1849.994
1029.689, 1828.063
1030.171, 1808.789
1030.653, 1792.609
1031.135, 1777.948
1031.617, 1761.937
1032.100, 1746.483
1032.582, 1736.689
1033.064, 1732.574
1033.546, 1731.238
1034.028, 1730.273
1034.510, 1732.600
1034.992, 1740.469
1035.474, 1752.525
1035.957, 1764.582
1036.439, 1776.599
1036.921, 1792.014
1037.403, 1812.134
1037.885, 1834.604
1038.367, 1857.877
1038.849, 1881.293
1039.331, 1903.230
1039.813, 1923.372
1040.296, 1943.708
1040.778, 1964.759
1041.260, 1985.074
1041.742, 2003.106
1042.224, 2019.869
1042.706, 2037.710
1043.188, 2056.609
1043.670, 2077.604
1044.152, 2101.964
1044.635, 2127.254
1045.117, 2154.098
1045.599, 2180.146
1046.081, 2202.962
1046.563, 2223.152
1047.045, 2237.296
1047.527, 2245.336
1048.009, 2246.756
1048.492, 2242.769
1048.974, 2230.681
1049.456, 2205.232
1049.938, 2167.189
1050.420, 2129.062
1050.902, 2093.358
1051.384, 2054.601
1051.866, 2010.768
1052.349, 1964.148
1052.831, 1917.696
1053.313, 1872.116
1053.795, 1829.767
1054.277, 1792.538
1054.759, 1754.640
1055.241, 1710.102
1055.723, 1667.093
1056.205, 1631.057
1056.688, 1601.831
1057.170, 1572.820
1057.652, 1543.925
1058.134, 1518.296
1058.616, 1496.433
1059.098, 1479.437
1059.580, 1468.320
1060.062, 1462.819
1060.544, 1462.748
1061.027, 1468.979
1061.509, 1478.270
1061.991, 1489.967
1062.473, 1506.054
1062.955, 1528.651
1063.437, 1556.963
1063.919, 1591.877
1064.401, 1632.034
1064.884, 1669.024
1065.366, 1703.396
1065.848, 1727.967
1066.330, 1742.320
1066.812, 1745.273
1067.294, 1733.256
1067.776, 1706.794
1068.258, 1668.293
1068.740, 1616.846
1069.223, 1562.728
1069.705, 1511.115
1070.187, 1462.134
1070.669, 1414.733
1071.151, 1368.457
1071.633, 1328.599
1072.115, 1294.895
1072.597, 1267.529
1073.079, 1247.943
1073.562, 1232.850
1074.044, 1217.234
1074.526, 1202.281
1075.008, 1189.955
1075.490, 1182.793
1075.972, 1175.141
1076.454, 1166.705
1076.936, 1157.440
1077.419, 1147.212
1077.901, 1136.062
1078.383, 1124.040
1078.865, 1111.063
1079.347, 1097.259
1079.829, 1080.646
1080.311, 1065.438
1080.793, 1053.716
1081.275, 1044.560
1081.758, 1037.138
1082.240, 1031.475
1082.722, 1025.776
1083.204, 1019.742
1083.686, 1014.218
1084.168, 1010.315
1084.650, 1006.853
1085.132, 1002.311
1085.615, 999.3629
1086.097, 996.7950
1086.579, 993.0440
1087.061, 991.9957
1087.543, 988.9079
1088.025, 985.0881
1088.507, 983.0667
1088.989, 981.7526
1089.471, 978.7864
1089.953, 972.6971
1090.436, 968.6633
1090.918, 968.8453
1091.400, 969.8826
1091.882, 970.2628
1092.364, 970.0497
1092.846, 969.0602
1093.328, 967.6220
1093.810, 967.3956
1094.293, 971.6548
1094.775, 973.8210
1095.257, 967.8232
1095.739, 960.1121
1096.221, 957.9764
1096.703, 962.2582
1097.185, 964.7594
1097.667, 965.3138
1098.150, 965.1748
1098.632, 964.9880
1099.114, 964.7509
1099.596, 963.9988
1100.078, 963.1931
1100.560, 964.0428
1101.042, 967.8629
1101.524, 969.2598
1102.006, 967.0267
1102.489, 964.0062
1102.971, 963.5128
1103.453, 964.2924
1103.935, 964.5482
1104.417, 964.1137
1104.899, 963.3757
1105.381, 962.2156
1105.863, 961.0798
1106.345, 960.0014
1106.828, 959.1395
1107.310, 958.4796
1107.792, 958.3406
1108.274, 960.1871
1108.756, 965.0855
1109.238, 968.6097
1109.720, 967.1205
1110.202, 965.0348
1110.685, 964.6360
1111.167, 965.8234
1111.649, 968.5816
1112.131, 972.6337
1112.613, 975.2742
1113.095, 974.7747
1113.577, 973.4078
1114.059, 971.7979
1114.542, 970.7943
1115.024, 971.8552
1115.506, 976.1115
1115.988, 976.2684
1116.470, 972.0035
1116.952, 966.8625
1117.434, 962.8597
1117.916, 959.5278
1118.398, 955.8625
1118.880, 952.5197
1119.363, 951.3220
1119.845, 954.4455
1120.327, 955.2315
1120.809, 952.7670
1121.291, 949.4645
1121.773, 947.2946
1122.255, 946.1503
1122.737, 946.2688
1123.220, 947.4137
1123.702, 948.1135
1124.184, 948.1832
1124.666, 947.1674
1125.148, 944.5724
1125.630, 941.4614
1126.112, 939.3273
1126.594, 938.1092
1127.077, 937.8123
1127.559, 938.4741
1128.041, 939.1113
1128.523, 939.2059
1129.005, 939.2374
1129.487, 939.5652
1129.969, 939.9266
1130.451, 939.2318
1130.933, 937.6644
1131.416, 936.5453
1131.898, 936.0187
1132.380, 936.7576
1132.862, 941.0163
1133.344, 945.1974
1133.826, 945.8458
1134.308, 943.2250
1134.790, 943.6830
1135.272, 947.3162
1135.755, 949.5637
1136.237, 947.7712
1136.719, 945.3224
1137.201, 945.1135
1137.683, 946.2870
1138.165, 947.9394
1138.647, 950.1982
1139.129, 951.8375
1139.612, 952.7892
1140.094, 953.6081
1140.576, 954.3906
1141.058, 955.4357
1141.540, 956.8668
1142.022, 958.9003
1142.504, 962.1009
1142.986, 968.3962
1143.469, 971.9851
1143.951, 971.9911
1144.433, 971.6339
1144.915, 973.7953
1145.397, 977.4789
1145.879, 981.8504
1146.361, 986.2723
1146.843, 988.4317
1147.325, 986.5017
1147.807, 983.3732
1148.290, 978.4064
1148.772, 974.2185
1149.254, 975.6809
1149.736, 980.0759
1150.218, 980.1092
1150.700, 975.5012
1151.182, 970.0809
1151.664, 964.1217
1152.147, 959.4067
1152.629, 956.6850
1153.111, 955.0860
1153.593, 953.1042
1154.075, 950.8910
1154.557, 949.1393
1155.039, 947.9959
1155.521, 946.5024
1156.004, 942.8653
1156.486, 940.2681
1156.968, 940.9041
1157.450, 938.1224
1157.932, 941.7206
1158.414, 937.0710
1158.896, 935.0212
1159.378, 937.5804
1159.860, 939.9062
1160.343, 938.3541
1160.825, 935.7659
1161.307, 934.2079
1161.789, 933.5085
1162.271, 932.0359
1162.753, 929.8245
1163.235, 927.5939
1163.717, 925.2461
1164.199, 923.8164
1164.682, 924.6098
1165.164, 926.4549
1165.646, 928.5212
1166.128, 930.8503
1166.610, 931.2141
1167.092, 929.5380
1167.574, 927.6906
1168.056, 926.6178
1168.539, 925.7355
1169.021, 924.3324
1169.503, 922.8760
1169.985, 921.9704
1170.467, 921.5088
1170.949, 922.2228
1171.431, 924.1835
1171.913, 926.7751
1172.396, 931.6749
1172.878, 935.1215
1173.360, 930.4154
1173.842, 922.1113
1174.324, 919.4330
1174.806, 925.7471
1175.288, 930.1549
1175.770, 932.2208
1176.252, 933.3044
1176.734, 934.1369
1177.217, 934.8239
1177.699, 935.6768
1178.181, 936.4669
1178.663, 936.4127
1179.145, 934.5696
1179.627, 934.0315
1180.109, 935.1985
1180.591, 936.9464
1181.074, 938.8301
1181.556, 940.2277
1182.038, 939.4031
1182.520, 937.0839
1183.002, 937.0458
1183.484, 941.6490
1183.966, 944.6102
1184.448, 944.8495
1184.931, 944.3298
1185.413, 945.7815
1185.895, 947.7164
1186.377, 947.1175
1186.859, 947.5864
1187.341, 947.9698
1187.823, 945.7939
1188.305, 946.7053
1188.787, 944.2001
1189.270, 940.3928
1189.752, 937.2341
1190.234, 935.2293
1190.716, 936.0153
1191.198, 939.5978
1191.680, 941.4104
1192.162, 939.6725
1192.644, 937.6539
1193.126, 935.9481
1193.609, 934.6814
1194.091, 934.6766
1194.573, 935.0554
1195.055, 933.7399
1195.537, 930.2973
1196.019, 928.4323
1196.501, 930.2719
1196.983, 931.1816
1197.466, 929.1679
1197.948, 926.4871
1198.430, 928.3576
1198.912, 932.3230
1199.394, 933.0504
1199.876, 928.9874
1200.358, 925.9473
1200.840, 925.2363
1201.323, 925.4485
1201.805, 926.3379
1202.287, 927.4983
1202.769, 928.3575
1203.251, 928.7841
1203.733, 928.3355
1204.215, 926.6428
1204.697, 925.4115
1205.179, 924.8933
1205.661, 924.9401
1206.144, 925.5506
1206.626, 926.6502
1207.108, 928.9827
1207.590, 931.4608
1208.072, 931.2993
1208.554, 926.4569
1209.036, 923.4208
1209.518, 923.5984
1210.001, 924.6476
1210.483, 925.5850
1210.965, 926.4161
1211.447, 926.7408
1211.929, 927.0244
1212.411, 928.5439
1212.893, 932.7806
1213.375, 935.0606
1213.858, 934.3123
1214.340, 932.8696
1214.822, 931.6260
1215.304, 930.9227
1215.786, 932.0493
1216.268, 934.2779
1216.750, 935.9409
1217.232, 936.3149
1217.714, 936.5414
1218.197, 936.5901
1218.679, 936.8325
1219.161, 937.5620
1219.643, 938.6005
1220.125, 940.0345
1220.607, 941.4227
1221.089, 941.6988
1221.571, 939.1035
1222.053, 938.1957
1222.536, 939.5558
1223.018, 941.6176
1223.500, 943.9859
1223.982, 945.9392
1224.464, 945.6603
1224.946, 943.8514
1225.428, 942.0856
1225.910, 940.1281
1226.393, 939.6232
1226.875, 940.9708
1227.357, 942.5970
1227.839, 943.8403
1228.321, 944.3093
1228.803, 942.5714
1229.285, 939.6698
1229.767, 938.0233
1230.250, 938.6523
1230.732, 939.8493
1231.214, 941.8461
1231.696, 943.4528
1232.178, 943.2355
1232.660, 942.4611
1233.142, 943.1523
1233.624, 944.6287
1234.106, 945.2175
1234.589, 944.3691
1235.071, 943.6429
1235.553, 943.2109
1236.035, 942.1789
1236.517, 938.4510
1236.999, 934.9061
1237.481, 936.4348
1237.963, 940.4186
1238.445, 940.4035
1238.928, 933.9840
1239.410, 930.9006
1239.892, 931.7021
1240.374, 933.5212
1240.856, 934.7126
1241.338, 935.4089
1241.820, 935.2081
1242.302, 934.7811
1242.785, 935.6648
1243.267, 938.4338
1243.749, 939.3824
1244.231, 938.2835
1244.713, 937.6688
1245.195, 940.5116
1245.677, 943.3971
1246.159, 943.5912
1246.641, 942.0616
1247.124, 940.7387
1247.606, 939.6631
1248.088, 938.0151
1248.570, 935.8020
1249.052, 934.5652
1249.534, 935.8531
1250.016, 937.8502
1250.498, 939.6434
1250.980, 941.3852
1251.463, 943.8100
1251.945, 946.8577
1252.427, 946.3598
1252.909, 942.5462
1253.391, 939.8165
1253.873, 943.1279
1254.355, 945.3905
1254.837, 941.9213
1255.320, 937.2391
1255.802, 936.6757
1256.284, 939.5214
1256.766, 941.4537
1257.248, 942.3981
1257.730, 943.2199
1258.212, 945.1279
1258.694, 945.8583
1259.177, 944.6151
1259.659, 942.4374
1260.141, 939.7333
1260.623, 937.0613
1261.105, 937.1264
1261.587, 939.2634
1262.069, 940.0157
1262.551, 935.5738
1263.033, 933.3411
1263.516, 934.8461
1263.998, 937.3344
1264.480, 938.8297
1264.962, 939.0252
1265.444, 935.8391
1265.926, 930.6325
1266.408, 928.3531
1266.890, 933.3801
1267.372, 935.4959
1267.855, 933.5098
1268.337, 930.8192
1268.819, 929.8351
1269.301, 930.3140
1269.783, 932.9400
1270.265, 936.6572
1270.747, 938.5900
1271.229, 938.3209
1271.712, 936.7454
1272.194, 933.6993
1272.676, 930.7929
1273.158, 928.4109
1273.640, 927.4919
1274.122, 929.5445
1274.604, 933.5055
1275.086, 937.5725
1275.568, 942.1795
1276.051, 943.2752
1276.533, 940.7335
1277.015, 937.7285
1277.497, 935.1271
1277.979, 934.0540
1278.461, 936.7341
1278.943, 940.3638
1279.425, 941.2850
1279.907, 939.5759
1280.390, 939.3300
1280.872, 940.3586
1281.354, 940.5392
1281.836, 938.0900
1282.318, 935.3682
1282.800, 932.3895
1283.282, 930.3820
1283.764, 931.0754
1284.247, 933.7334
1284.729, 934.6364
1285.211, 934.1249
1285.693, 933.5487
1286.175, 932.7600
1286.657, 933.2026
1287.139, 935.7490
1287.621, 937.8791
1288.104, 937.0411
1288.586, 934.7739
1289.068, 934.3162
1289.550, 935.0746
1290.032, 935.6513
1290.514, 935.0689
1290.996, 935.8812
1291.478, 938.6672
1291.960, 940.4286
1292.443, 937.5432
1292.925, 934.4447
1293.407, 938.8356
1293.889, 945.8593
1294.371, 946.6176
1294.853, 939.0621
1295.335, 935.8371
1295.817, 937.0159
1296.299, 938.7288
1296.782, 938.8993
1297.264, 939.0208
1297.746, 941.1036
1298.228, 942.9649
1298.710, 942.2283
1299.192, 939.1657
1299.674, 937.6501
1300.156, 937.5316
1300.639, 937.7210
1301.121, 937.9855
1301.603, 938.1159
1302.085, 937.8499
1302.567, 937.9033
1303.049, 938.6408
1303.531, 939.8975
##END=



