##NAMES=Bikitaite
##RRUFFID=R060032
##IDEAL CHEMISTRY=LiAlSi_2_O_6_&#183;H_2_O
##LOCALITY=Al Hyat mine, Bikita, Fort Victoria, Southern Rhodesia
##OWNER=RRUFF
##SOURCE=University of Arizona Mineral Museum
##DESCRIPTION=A group of radiating white to colorless acicular crystals
##STATUS=The identification of this mineral has been confirmed by X-ray diffraction and chemical analysis
##URL=rruff.info/R060032
##MEASURED CHEMISTRY=Li_1.00_Al_1.00_Si_2.00_O_6_Â·H_2_O ; Li not measured but estimated by charge balance
176.8941, 207.4537
177.3762, 207.2261
177.8583, 207.1689
178.3404, 207.3020
178.8225, 207.6199
179.3047, 208.3791
179.7868, 209.2318
180.2689, 209.6864
180.7510, 209.4653
181.2331, 208.8240
181.7152, 208.9332
182.1974, 210.4220
182.6795, 211.9419
183.1616, 213.3009
183.6437, 214.5453
184.1258, 215.8076
184.6079, 217.1801
185.0900, 218.6131
185.5722, 219.7430
186.0543, 220.4939
186.5364, 221.1035
187.0185, 221.5560
187.5006, 221.9104
187.9827, 222.3646
188.4649, 223.0699
188.9470, 223.9623
189.4291, 224.7135
189.9112, 225.0646
190.3933, 225.5088
190.8754, 226.4607
191.3576, 227.8860
191.8397, 229.2509
192.3218, 230.1156
192.8039, 230.7362
193.2860, 231.7112
193.7681, 233.3110
194.2503, 235.1080
194.7324, 236.6006
195.2145, 237.7325
195.6966, 238.9810
196.1787, 240.6605
196.6608, 242.6225
197.1430, 244.7727
197.6251, 247.2036
198.1072, 249.6908
198.5893, 251.7946
199.0714, 253.3414
199.5535, 254.9793
200.0357, 257.2191
200.5178, 259.6238
200.9999, 261.7433
201.4820, 263.4547
201.9641, 264.6874
202.4462, 265.2413
202.9284, 265.0118
203.4105, 264.1699
203.8926, 262.7878
204.3747, 260.9435
204.8568, 258.6987
205.3389, 256.0739
205.8211, 253.1084
206.3032, 250.0010
206.7853, 246.2202
207.2674, 242.9770
207.7495, 240.5199
208.2316, 238.7043
208.7138, 237.3530
209.1959, 236.3871
209.6780, 235.7569
210.1601, 235.1316
210.6422, 234.2877
211.1243, 233.6951
211.6065, 233.5311
212.0886, 233.6660
212.5707, 233.8741
213.0528, 234.0014
213.5349, 234.0811
214.0170, 234.4566
214.4992, 235.4127
214.9813, 236.3227
215.4634, 237.0242
215.9455, 237.5523
216.4276, 238.0259
216.9097, 238.5302
217.3919, 239.0383
217.8740, 239.2757
218.3561, 239.3077
218.8382, 239.0795
219.3203, 238.5613
219.8024, 237.7641
220.2845, 236.7243
220.7667, 235.4646
221.2488, 233.9529
221.7309, 232.1426
222.2130, 229.7317
222.6951, 227.3562
223.1772, 225.3071
223.6594, 223.5540
224.1415, 221.9348
224.6236, 220.3202
225.1057, 218.8048
225.5878, 217.6046
226.0699, 216.8605
226.5521, 216.2546
227.0342, 215.5403
227.5163, 214.7377
227.9984, 214.0741
228.4805, 213.6756
228.9626, 213.5010
229.4448, 213.4331
229.9269, 213.5085
230.4090, 213.6255
230.8911, 213.6602
231.3732, 213.6113
231.8553, 213.6807
232.3375, 213.9724
232.8196, 214.4381
233.3017, 215.0238
233.7838, 215.7427
234.2659, 216.5312
234.7480, 217.3752
235.2302, 218.2958
235.7123, 219.0678
236.1944, 219.3801
236.6765, 219.6291
237.1586, 220.1704
237.6407, 221.0993
238.1229, 222.1812
238.6050, 223.0973
239.0871, 223.7762
239.5692, 224.6509
240.0513, 226.1308
240.5334, 227.6867
241.0156, 228.9807
241.4977, 229.9285
241.9798, 230.6733
242.4619, 231.3154
242.9440, 231.7641
243.4261, 232.4686
243.9083, 233.7335
244.3904, 235.1161
244.8725, 236.3474
245.3546, 237.3762
245.8367, 238.3215
246.3188, 239.3562
246.8010, 240.5476
247.2831, 241.6121
247.7652, 242.6385
248.2473, 243.4700
248.7294, 243.8660
249.2115, 243.8534
249.6937, 243.7845
250.1758, 244.1997
250.6579, 245.4668
251.1400, 246.2129
251.6221, 246.4687
252.1042, 246.2587
252.5864, 245.2900
253.0685, 243.6929
253.5506, 242.1423
254.0327, 241.5753
254.5148, 242.6370
254.9969, 242.5834
255.4790, 240.9863
255.9612, 238.8487
256.4433, 236.5309
256.9254, 234.1604
257.4075, 231.8086
257.8896, 229.5910
258.3718, 227.6007
258.8539, 225.3312
259.3360, 222.6026
259.8181, 219.8214
260.3002, 217.1267
260.7823, 214.5584
261.2645, 212.1255
261.7466, 209.8196
262.2287, 207.6140
262.7108, 205.7948
263.1929, 204.6094
263.6750, 203.4923
264.1572, 202.1203
264.6393, 200.5502
265.1214, 199.0572
265.6035, 197.8508
266.0856, 196.9417
266.5677, 196.1463
267.0499, 195.5232
267.5320, 194.9217
268.0141, 194.1870
268.4962, 193.4013
268.9783, 192.7934
269.4604, 192.5220
269.9426, 192.5729
270.4247, 192.7683
270.9068, 193.2813
271.3889, 193.7256
271.8710, 193.8744
272.3531, 193.8356
272.8352, 193.9099
273.3174, 194.3048
273.7995, 194.9081
274.2816, 195.1555
274.7637, 194.7159
275.2458, 194.3799
275.7279, 194.3430
276.2101, 194.5814
276.6922, 195.1067
277.1743, 195.9897
277.6564, 197.0416
278.1385, 197.6943
278.6206, 197.7238
279.1028, 197.8610
279.5849, 198.4399
280.0670, 199.2418
280.5491, 199.8352
281.0312, 200.0201
281.5133, 200.0716
281.9955, 200.5612
282.4776, 201.5604
282.9597, 202.5894
283.4418, 203.6176
283.9239, 204.5916
284.4060, 205.3976
284.8882, 205.9887
285.3703, 206.5051
285.8524, 207.1302
286.3345, 207.8626
286.8166, 208.6603
287.2987, 209.6904
287.7809, 210.7097
288.2630, 211.3706
288.7451, 211.5926
289.2272, 211.6342
289.7093, 211.8416
290.1914, 212.1896
290.6736, 212.0841
291.1557, 211.2715
291.6378, 210.0532
292.1199, 208.6345
292.6020, 207.0283
293.0841, 205.5064
293.5663, 204.2991
294.0484, 203.3783
294.5305, 202.5563
295.0126, 201.8760
295.4947, 201.2495
295.9768, 200.6709
296.4590, 200.1313
296.9411, 199.4077
297.4232, 198.2600
297.9053, 196.8379
298.3874, 195.6059
298.8695, 194.4870
299.3517, 193.6590
299.8338, 193.4376
300.3159, 193.7285
300.7980, 193.8937
301.2801, 193.6320
301.7622, 193.0621
302.2444, 192.4693
302.7265, 191.8376
303.2086, 191.2216
303.6907, 190.5648
304.1728, 189.9275
304.6549, 189.5628
305.1371, 189.6201
305.6192, 189.8950
306.1013, 190.0826
306.5834, 190.1739
307.0655, 190.2790
307.5476, 190.4488
308.0298, 190.6671
308.5119, 190.8849
308.9940, 191.0736
309.4761, 191.3065
309.9582, 191.7609
310.4403, 192.3989
310.9225, 192.8437
311.4046, 192.9707
311.8867, 192.8352
312.3688, 192.4356
312.8509, 191.7151
313.3330, 191.0374
313.8152, 190.8267
314.2973, 190.9358
314.7794, 190.8929
315.2615, 190.5616
315.7436, 190.0607
316.2257, 189.4211
316.7079, 188.6314
317.1900, 188.0394
317.6721, 188.0099
318.1542, 188.2996
318.6363, 188.2915
319.1184, 187.7582
319.6006, 187.1436
320.0827, 186.7689
320.5648, 186.6135
321.0469, 186.5359
321.5290, 186.5179
322.0111, 186.5091
322.4933, 186.3884
322.9754, 186.0771
323.4575, 185.8871
323.9396, 186.1142
324.4217, 186.6108
324.9038, 186.9413
325.3860, 187.0046
325.8681, 186.8197
326.3502, 186.3103
326.8323, 185.4689
327.3144, 184.7659
327.7965, 184.5920
328.2787, 184.6030
328.7608, 184.1434
329.2429, 183.0407
329.7250, 181.8355
330.2071, 181.0760
330.6892, 180.6937
331.1714, 180.3274
331.6535, 179.7829
332.1356, 179.3007
332.6177, 179.2075
333.0998, 179.5180
333.5819, 179.8422
334.0641, 179.8786
334.5462, 179.7216
335.0283, 179.7561
335.5104, 180.0748
335.9925, 180.5072
336.4746, 181.0292
336.9568, 181.6016
337.4389, 181.9851
337.9210, 181.9543
338.4031, 181.7969
338.8852, 182.2198
339.3673, 183.4657
339.8495, 184.6144
340.3316, 185.1944
340.8137, 185.4278
341.2958, 185.7787
341.7779, 186.4031
342.2600, 187.0999
342.7421, 187.6087
343.2242, 187.9498
343.7064, 188.0684
344.1885, 187.6752
344.6706, 187.1937
345.1527, 187.1364
345.6348, 187.5751
346.1169, 188.1837
346.5991, 188.7311
347.0812, 189.1998
347.5633, 189.4206
348.0454, 189.1123
348.5275, 188.7913
349.0096, 188.8690
349.4918, 189.2768
349.9739, 189.6271
350.4560, 189.6735
350.9381, 189.4793
351.4202, 189.3711
351.9023, 189.5906
352.3845, 189.6072
352.8666, 189.1582
353.3487, 188.4088
353.8308, 187.6182
354.3129, 186.8720
354.7950, 186.2153
355.2772, 185.7388
355.7593, 185.4557
356.2414, 185.3310
356.7235, 185.5161
357.2056, 185.7787
357.6877, 185.8254
358.1699, 185.6261
358.6520, 185.4576
359.1341, 185.6150
359.6162, 186.1456
360.0983, 186.8610
360.5804, 187.8196
361.0626, 188.8881
361.5447, 190.0724
362.0268, 191.3245
362.5089, 192.5211
362.9910, 193.5703
363.4731, 194.4935
363.9553, 195.4441
364.4374, 196.3035
364.9195, 197.3370
365.4016, 198.6613
365.8837, 200.1754
366.3658, 201.6911
366.8480, 203.1349
367.3301, 204.6673
367.8122, 206.6520
368.2943, 209.6793
368.7764, 212.2383
369.2585, 213.9111
369.7407, 215.4385
370.2228, 217.3608
370.7049, 219.7588
371.1870, 222.3984
371.6691, 225.0459
372.1512, 227.6907
372.6334, 230.3201
373.1155, 232.8020
373.5976, 235.3786
374.0797, 238.2498
374.5618, 241.2785
375.0439, 244.1649
375.5261, 246.6757
376.0082, 248.9403
376.4903, 251.6697
376.9724, 255.4511
377.4545, 258.8776
377.9366, 261.4669
378.4188, 263.7514
378.9009, 266.3998
379.3830, 269.6141
379.8651, 272.8664
380.3472, 275.2515
380.8293, 276.6093
381.3115, 277.6656
381.7936, 278.3885
382.2757, 278.9008
382.7578, 279.1701
383.2399, 279.2511
383.7220, 279.3392
384.2042, 279.7447
384.6863, 280.4084
385.1684, 280.3547
385.6505, 278.8943
386.1326, 277.6896
386.6147, 277.6504
387.0969, 278.2273
387.5790, 278.5290
388.0611, 278.1270
388.5432, 277.3357
389.0253, 276.6698
389.5074, 276.1119
389.9896, 275.7470
390.4717, 275.9048
390.9538, 276.0892
391.4359, 275.8662
391.9180, 275.1661
392.4001, 274.2854
392.8823, 273.5963
393.3644, 272.9992
393.8465, 271.8511
394.3286, 270.0216
394.8107, 267.6622
395.2928, 264.7479
395.7750, 261.4101
396.2571, 258.0966
396.7392, 255.2420
397.2213, 252.3926
397.7034, 248.8185
398.1855, 244.4888
398.6677, 239.8631
399.1498, 234.9885
399.6319, 230.0650
400.1140, 225.5662
400.5961, 221.6637
401.0782, 217.9378
401.5604, 214.0337
402.0425, 210.0841
402.5246, 206.4392
403.0067, 203.2219
403.4888, 200.3089
403.9709, 197.5240
404.4531, 194.8112
404.9352, 192.4285
405.4173, 190.5344
405.8994, 188.9193
406.3815, 187.4096
406.8636, 185.9824
407.3458, 184.6492
407.8279, 183.4199
408.3100, 182.3040
408.7921, 181.4005
409.2742, 181.0382
409.7563, 180.5034
410.2385, 179.3049
410.7206, 177.7942
411.2027, 176.6802
411.6848, 176.2762
412.1669, 176.1965
412.6490, 175.6367
413.1311, 174.1003
413.6133, 172.9289
414.0954, 172.1609
414.5775, 171.7121
415.0596, 171.6718
415.5417, 171.9520
416.0238, 172.2271
416.5060, 172.1965
416.9881, 171.8554
417.4702, 171.4227
417.9523, 170.7592
418.4344, 170.1495
418.9165, 169.6696
419.3987, 169.2827
419.8808, 168.9449
420.3629, 168.6411
420.8450, 168.3311
421.3271, 167.8911
421.8092, 167.1647
422.2914, 166.7167
422.7735, 166.9220
423.2556, 167.1655
423.7377, 167.0827
424.2198, 166.6486
424.7019, 166.0458
425.1841, 165.3206
425.6662, 164.5081
426.1483, 164.0418
426.6304, 164.1338
427.1125, 164.2375
427.5946, 164.1551
428.0768, 163.9126
428.5589, 163.5112
429.0410, 162.8846
429.5231, 162.2465
430.0052, 161.9563
430.4873, 162.0265
430.9695, 161.8799
431.4516, 161.1741
431.9337, 160.3470
432.4158, 159.9209
432.8979, 159.8996
433.3800, 159.8529
433.8622, 159.4446
434.3443, 158.9150
434.8264, 158.7675
435.3085, 159.0964
435.7906, 159.3904
436.2727, 159.1510
436.7549, 158.5460
437.2370, 158.3769
437.7191, 159.1781
438.2012, 159.8993
438.6833, 159.8546
439.1654, 159.2995
439.6476, 158.8918
440.1297, 158.9001
440.6118, 159.0497
441.0939, 158.8392
441.5760, 158.0341
442.0581, 157.5246
442.5403, 157.4727
443.0224, 157.6427
443.5045, 157.9231
443.9866, 158.2681
444.4687, 158.6110
444.9508, 158.9122
445.4330, 159.1633
445.9151, 159.2762
446.3972, 159.0989
446.8793, 158.9623
447.3614, 158.8440
447.8435, 158.8237
448.3257, 159.0480
448.8078, 159.5412
449.2899, 160.0985
449.7720, 160.3934
450.2541, 160.3144
450.7362, 160.3589
451.2184, 160.5964
451.7005, 160.8969
452.1826, 161.2386
452.6647, 161.6034
453.1468, 161.9559
453.6289, 162.2460
454.1111, 162.5439
454.5932, 163.0928
455.0753, 164.0390
455.5574, 164.8066
456.0395, 164.9279
456.5216, 164.9480
457.0038, 165.2772
457.4859, 165.9774
457.9680, 166.9071
458.4501, 168.0089
458.9322, 169.2613
459.4143, 170.6117
459.8965, 172.1193
460.3786, 173.5359
460.8607, 174.6713
461.3428, 175.5612
461.8249, 176.2546
462.3070, 176.6418
462.7892, 176.9518
463.2713, 177.3091
463.7534, 177.7251
464.2355, 178.2816
464.7176, 179.0666
465.1997, 179.8648
465.6819, 180.2394
466.1640, 180.0150
466.6461, 180.0626
467.1282, 180.6519
467.6103, 181.4250
468.0924, 182.1124
468.5746, 182.6943
469.0567, 183.2417
469.5388, 183.7733
470.0209, 184.3284
470.5030, 185.2161
470.9851, 186.6254
471.4673, 188.1443
471.9494, 189.8012
472.4315, 191.5066
472.9136, 193.1499
473.3957, 194.7123
473.8778, 196.3029
474.3600, 198.0618
474.8421, 200.0092
475.3242, 201.9729
475.8063, 204.0224
476.2884, 206.0232
476.7705, 207.8861
477.2527, 209.6858
477.7348, 211.5453
478.2169, 213.5215
478.6990, 215.5774
479.1811, 217.6785
479.6632, 219.8531
480.1454, 221.8784
480.6275, 223.5329
481.1096, 225.1964
481.5917, 227.2365
482.0738, 229.6129
482.5559, 231.9404
483.0380, 234.0086
483.5201, 235.9393
484.0023, 237.8682
484.4844, 239.7973
484.9665, 241.8743
485.4486, 244.2393
485.9307, 246.7784
486.4128, 249.2208
486.8950, 251.6158
487.3771, 253.8101
487.8592, 255.5235
488.3413, 257.0966
488.8234, 259.0878
489.3055, 261.5876
489.7877, 264.0984
490.2698, 266.0814
490.7519, 267.5005
491.2340, 269.2527
491.7161, 271.9395
492.1982, 274.2383
492.6804, 275.8366
493.1625, 276.7693
493.6446, 276.9961
494.1267, 276.5297
494.6088, 275.7346
495.0909, 275.3430
495.5731, 275.8099
496.0552, 275.2207
496.5373, 272.8528
497.0194, 270.0717
497.5015, 267.4836
497.9836, 264.9025
498.4658, 261.8424
498.9479, 258.0396
499.4300, 253.6302
499.9121, 248.7432
500.3942, 243.3393
500.8763, 237.8842
501.3585, 232.4877
501.8406, 227.1185
502.3227, 221.5986
502.8048, 215.9442
503.2869, 210.5715
503.7690, 205.8591
504.2512, 201.4609
504.7333, 196.7135
505.2154, 191.5485
505.6975, 187.0031
506.1796, 183.8492
506.6617, 181.6612
507.1439, 179.0630
507.6260, 175.8392
508.1081, 172.6326
508.5902, 169.4572
509.0723, 166.4712
509.5544, 163.9130
510.0366, 161.8023
510.5187, 159.8048
511.0008, 157.5717
511.4829, 155.1062
511.9650, 153.1802
512.4471, 152.3317
512.9293, 151.3872
513.4114, 150.0383
513.8935, 148.5216
514.3756, 147.0782
514.8577, 145.7897
515.3398, 144.6380
515.8220, 143.6095
516.3041, 142.7068
516.7862, 141.9277
517.2683, 141.4338
517.7504, 140.8533
518.2325, 139.8881
518.7147, 138.7628
519.1968, 137.9132
519.6789, 137.5999
520.1610, 137.3266
520.6431, 136.3165
521.1252, 134.7144
521.6074, 133.7853
522.0895, 134.0462
522.5716, 134.6311
523.0537, 134.5925
523.5358, 134.0154
524.0179, 133.4474
524.5001, 132.8541
524.9822, 132.4070
525.4643, 132.4448
525.9464, 132.7498
526.4285, 132.6009
526.9106, 131.6380
527.3928, 130.3709
527.8749, 129.7559
528.3570, 130.1005
528.8391, 130.4197
529.3212, 130.8603
529.8033, 131.1429
530.2855, 131.0016
530.7676, 130.5720
531.2497, 130.1970
531.7318, 130.0822
532.2139, 130.1350
532.6960, 130.1197
533.1782, 130.0238
533.6603, 129.8949
534.1424, 129.7257
534.6245, 129.5358
535.1066, 129.3201
535.5887, 129.0895
536.0709, 128.8772
536.5530, 128.6850
537.0351, 128.5342
537.5172, 128.5398
537.9993, 128.7193
538.4814, 128.6579
538.9636, 128.0257
539.4457, 127.2070
539.9278, 126.9315
540.4099, 127.3435
540.8920, 127.3916
541.3741, 126.3453
541.8563, 125.0935
542.3384, 124.6800
542.8205, 125.0127
543.3026, 125.1613
543.7847, 124.5151
544.2668, 123.2980
544.7490, 122.3341
545.2311, 121.8134
545.7132, 121.3013
546.1953, 120.6903
546.6774, 120.1597
547.1595, 119.9155
547.6417, 119.9040
548.1238, 119.8607
548.6059, 119.5720
549.0880, 119.1033
549.5701, 118.7179
550.0522, 118.4682
550.5344, 118.1717
551.0165, 117.7313
551.4986, 117.2488
551.9807, 116.7716
552.4628, 116.3091
552.9449, 115.9358
553.4271, 115.6573
553.9092, 115.5105
554.3913, 115.6973
554.8734, 116.2290
555.3555, 116.4579
555.8376, 115.9110
556.3198, 114.9358
556.8019, 114.4548
557.2840, 114.6691
557.7661, 114.7877
558.2482, 114.5398
558.7303, 114.2188
559.2125, 114.0855
559.6946, 114.1448
560.1767, 114.2843
560.6588, 114.4487
561.1409, 114.5840
561.6230, 114.4352
562.1052, 113.6928
562.5873, 113.1953
563.0694, 113.2629
563.5515, 113.3828
564.0336, 113.1110
564.5157, 112.5039
564.9979, 112.0119
565.4800, 112.0356
565.9621, 112.3462
566.4442, 112.3247
566.9263, 111.9190
567.4084, 111.5371
567.8906, 111.3389
568.3727, 111.2312
568.8548, 111.0595
569.3369, 110.8121
569.8190, 110.6870
570.3011, 110.8048
570.7833, 111.0417
571.2654, 111.3997
571.7475, 111.7997
572.2296, 111.8905
572.7117, 111.4535
573.1938, 110.6978
573.6760, 110.1098
574.1581, 109.6581
574.6402, 109.4667
575.1223, 109.7782
575.6044, 110.1127
576.0865, 110.1597
576.5687, 109.9889
577.0508, 109.8612
577.5329, 109.9433
578.0150, 110.0819
578.4971, 109.8711
578.9792, 109.2036
579.4614, 108.8099
579.9435, 109.0387
580.4256, 109.3429
580.9077, 109.4071
581.3898, 109.2231
581.8719, 108.7667
582.3541, 107.6438
582.8362, 106.5989
583.3183, 106.5077
583.8004, 107.1464
584.2825, 107.6984
584.7646, 107.9086
585.2468, 107.9112
585.7289, 107.8635
586.2110, 107.7596
586.6931, 107.6341
587.1752, 107.4741
587.6573, 107.3099
588.1394, 107.0795
588.6215, 106.8770
589.1036, 106.9124
589.5858, 107.2386
590.0679, 107.5636
590.5500, 107.4013
591.0321, 106.6727
591.5142, 106.3247
591.9963, 106.6775
592.4785, 106.9375
592.9606, 106.6174
593.4427, 106.0563
593.9248, 105.7453
594.4069, 105.8303
594.8890, 105.9922
595.3712, 105.9776
595.8533, 105.8671
596.3354, 105.8604
596.8175, 105.9876
597.2996, 106.1552
597.7817, 106.3658
598.2639, 106.5513
598.7460, 106.3185
599.2281, 105.1771
599.7102, 104.3456
600.1923, 104.1466
600.6744, 104.2362
601.1566, 104.4292
601.6387, 104.6292
602.1208, 104.6531
602.6029, 104.3100
603.0850, 103.7549
603.5671, 103.6881
604.0493, 104.4428
604.5314, 104.7913
605.0135, 103.9829
605.4956, 103.0490
605.9777, 102.6865
606.4598, 102.8651
606.9420, 103.1466
607.4241, 103.4914
607.9062, 103.7192
608.3883, 103.4626
608.8704, 102.8309
609.3525, 102.4830
609.8347, 102.7075
610.3168, 103.0968
610.7989, 103.0718
611.2810, 102.5129
611.7631, 102.1186
612.2452, 101.8991
612.7274, 101.8249
613.2095, 101.9733
613.6916, 102.2288
614.1737, 102.4776
614.6558, 102.6657
615.1379, 102.6901
615.6201, 102.3092
616.1022, 101.5043
616.5843, 101.0539
617.0664, 101.1035
617.5485, 101.2571
618.0306, 101.3099
618.5128, 101.3696
618.9949, 101.6327
619.4770, 102.1848
619.9591, 102.5888
620.4412, 102.5065
620.9233, 102.1632
621.4055, 101.8484
621.8876, 101.5993
622.3697, 101.4680
622.8518, 101.5022
623.3339, 101.6498
623.8160, 101.7690
624.2982, 102.1067
624.7803, 101.9821
625.2624, 100.8769
625.7445, 99.79133
626.2266, 99.40887
626.7087, 99.55190
627.1909, 99.68148
627.6730, 99.50692
628.1551, 99.21999
628.6372, 99.18130
629.1193, 99.40064
629.6014, 99.49462
630.0836, 99.33245
630.5657, 99.16055
631.0478, 99.27629
631.5299, 99.53514
632.0120, 99.55587
632.4941, 99.18613
632.9763, 98.71223
633.4584, 98.10409
633.9405, 97.55049
634.4226, 97.42460
634.9047, 97.74391
635.3868, 98.09485
635.8690, 98.12000
636.3511, 97.87455
636.8332, 97.74728
637.3153, 97.85110
637.7974, 97.88628
638.2795, 97.67615
638.7617, 97.50585
639.2438, 97.70250
639.7259, 98.16190
640.2080, 98.39480
640.6901, 98.01314
641.1722, 97.37872
641.6544, 96.99761
642.1365, 96.86137
642.6186, 96.96249
643.1007, 97.40048
643.5828, 97.78712
644.0649, 97.65042
644.5471, 96.95329
645.0292, 96.41991
645.5113, 96.03670
645.9934, 95.83165
646.4755, 95.93954
646.9576, 96.17125
647.4398, 96.27808
647.9219, 96.22054
648.4040, 96.15511
648.8861, 96.25233
649.3682, 96.47014
649.8503, 96.52616
650.3325, 96.35661
650.8146, 96.20052
651.2967, 96.21150
651.7788, 96.20049
652.2609, 95.91991
652.7430, 95.39239
653.2252, 95.03574
653.7073, 95.15477
654.1894, 95.38637
654.6715, 95.40487
655.1536, 95.26036
655.6357, 95.10910
656.1179, 95.00346
656.6000, 94.93752
657.0821, 94.89957
657.5642, 94.88462
658.0463, 94.95098
658.5284, 95.31819
659.0106, 95.50305
659.4927, 95.26517
659.9748, 94.88542
660.4569, 94.62782
660.9390, 94.54525
661.4211, 94.56817
661.9033, 94.74218
662.3854, 94.95524
662.8675, 94.91745
663.3496, 94.62880
663.8317, 94.36019
664.3138, 94.17474
664.7960, 94.13814
665.2781, 94.44010
665.7602, 95.21306
666.2423, 95.52445
666.7244, 94.87425
667.2065, 94.27901
667.6887, 94.30659
668.1708, 94.63047
668.6529, 94.72020
669.1350, 94.44440
669.6171, 94.11830
670.0992, 94.09077
670.5814, 94.32569
671.0635, 94.52758
671.5456, 94.71133
672.0277, 94.80756
672.5098, 94.67414
672.9919, 94.53065
673.4741, 94.67368
673.9562, 95.11511
674.4383, 95.50685
674.9204, 95.79466
675.4025, 95.96122
675.8846, 95.95716
676.3668, 95.82766
676.8489, 95.65215
677.3310, 95.46180
677.8131, 95.27961
678.2952, 95.12287
678.7773, 94.98771
679.2595, 94.99500
679.7416, 95.23291
680.2237, 95.47315
680.7058, 95.58654
681.1879, 95.71573
681.6700, 96.09512
682.1522, 96.70882
682.6343, 97.08937
683.1164, 96.83221
683.5985, 96.31264
684.0806, 95.96563
684.5627, 95.75938
685.0449, 95.50879
685.5270, 95.13892
686.0091, 94.81110
686.4912, 94.75967
686.9733, 95.02367
687.4554, 95.11171
687.9376, 94.82190
688.4197, 94.60186
688.9018, 94.64777
689.3839, 94.73022
689.8660, 94.51869
690.3481, 94.04212
690.8303, 93.78028
691.3124, 94.31310
691.7945, 95.11193
692.2766, 95.10172
692.7587, 94.36296
693.2408, 93.77031
693.7230, 93.58372
694.2051, 93.67924
694.6872, 93.94118
695.1693, 94.37599
695.6514, 94.89244
696.1335, 95.85307
696.6157, 96.43568
697.0978, 96.10696
697.5799, 95.50903
698.0620, 95.27841
698.5441, 95.47652
699.0262, 95.77392
699.5084, 95.93812
699.9905, 96.03149
700.4726, 96.20933
700.9547, 96.47474
701.4368, 96.68747
701.9189, 96.81064
702.4011, 96.87962
702.8832, 96.93535
703.3653, 96.96976
703.8474, 96.92052
704.3295, 96.69077
704.8116, 96.50007
705.2938, 96.56442
705.7759, 96.59763
706.2580, 96.21031
706.7401, 95.46689
707.2222, 94.81203
707.7043, 94.56013
708.1865, 94.53129
708.6686, 94.27077
709.1507, 93.74474
709.6328, 93.45206
710.1149, 93.60815
710.5970, 93.75923
711.0792, 93.52730
711.5613, 93.01861
712.0434, 92.54526
712.5255, 92.14146
713.0076, 91.75146
713.4897, 91.20644
713.9719, 90.77216
714.4540, 90.84547
714.9361, 91.29336
715.4182, 91.60649
715.9003, 91.49786
716.3824, 91.12779
716.8646, 90.74759
717.3467, 90.33804
717.8288, 90.13531
718.3109, 90.25451
718.7930, 90.39441
719.2751, 90.41030
719.7573, 90.32754
720.2394, 90.15098
720.7215, 89.82101
721.2036, 89.62864
721.6857, 89.88485
722.1678, 90.14514
722.6500, 89.92923
723.1321, 89.38928
723.6142, 88.97443
724.0963, 88.87429
724.5784, 88.94312
725.0605, 89.01783
725.5427, 89.10241
726.0248, 89.02086
726.5069, 88.73049
726.9890, 88.36443
727.4711, 87.87354
727.9532, 87.40154
728.4354, 87.14734
728.9175, 87.12387
729.3995, 87.04946
729.8817, 86.71855
730.3638, 86.43111
730.8459, 86.51205
731.3280, 86.75403
731.8101, 86.67811
732.2922, 86.20287
732.7744, 85.82455
733.2565, 86.12682
733.7386, 86.92982
734.2207, 87.01283
734.7028, 86.11568
735.1849, 85.34267
735.6671, 84.93917
736.1492, 84.76252
736.6313, 84.71959
737.1134, 84.79406
737.5955, 84.91768
738.0776, 85.08097
738.5598, 85.28499
739.0419, 85.67419
739.5240, 86.02392
740.0061, 85.93045
740.4882, 85.45413
740.9703, 85.09144
741.4525, 85.18556
741.9346, 85.55666
742.4167, 85.79510
742.8988, 85.89503
743.3809, 85.87083
743.8630, 85.58028
744.3452, 85.41164
744.8273, 85.81216
745.3094, 86.44283
745.7915, 86.62678
746.2736, 86.15403
746.7557, 85.76100
747.2379, 85.61587
747.7200, 85.69845
748.2021, 86.17927
748.6842, 86.85144
749.1663, 87.20682
749.6484, 87.05319
750.1306, 86.78246
750.6127, 86.92712
751.0948, 87.45444
751.5769, 87.92919
752.0590, 88.37485
752.5411, 88.66563
753.0233, 88.69189
753.5054, 88.60063
753.9875, 88.59437
754.4696, 88.67278
754.9517, 88.67661
755.4338, 88.51163
755.9160, 88.35498
756.3981, 88.22202
756.8802, 88.17558
757.3623, 88.33395
757.8444, 88.67667
758.3265, 89.03684
758.8087, 89.30123
759.2908, 89.47585
759.7729, 89.59270
760.2550, 89.65138
760.7371, 89.50599
761.2192, 89.01649
761.7014, 88.66281
762.1835, 88.95581
762.6656, 89.67976
763.1477, 89.87147
763.6298, 89.20071
764.1119, 88.63766
764.5941, 88.35472
765.0762, 88.16218
765.5583, 87.96284
766.0404, 87.75017
766.5225, 87.54198
767.0046, 87.34505
767.4868, 87.14405
767.9689, 86.89781
768.4510, 86.63799
768.9331, 86.46848
769.4152, 86.39391
769.8973, 86.36864
770.3795, 86.40745
770.8616, 86.39127
771.3437, 86.11794
771.8258, 85.53294
772.3079, 85.09966
772.7900, 84.96580
773.2722, 84.78970
773.7543, 84.45236
774.2364, 84.07342
774.7185, 83.72781
775.2006, 83.44479
775.6827, 83.28452
776.1649, 83.33520
776.6470, 83.43631
777.1291, 83.37893
777.6112, 83.23335
778.0933, 83.20483
778.5754, 83.32200
779.0576, 83.44471
779.5397, 83.48035
780.0218, 83.43426
780.5039, 83.31001
780.9860, 83.04849
781.4681, 82.86918
781.9503, 82.94709
782.4324, 82.90545
782.9145, 82.41891
783.3966, 81.79707
783.8787, 81.50094
784.3608, 81.63000
784.8430, 81.80083
785.3251, 81.85293
785.8072, 81.85619
786.2893, 81.87058
786.7714, 81.88908
787.2535, 81.89900
787.7357, 81.89249
788.2178, 81.83549
788.6999, 81.67971
789.1820, 81.44944
789.6641, 81.29221
790.1462, 81.23277
790.6284, 81.12351
791.1105, 80.87814
791.5926, 80.65268
792.0747, 80.59203
792.5568, 80.66518
793.0389, 80.75564
793.5211, 80.92575
794.0032, 80.99918
794.4853, 80.88775
794.9674, 80.70032
795.4495, 80.51234
795.9316, 80.32253
796.4138, 80.10325
796.8959, 79.84366
797.3780, 79.55468
797.8601, 79.17042
798.3422, 78.77007
798.8243, 78.70783
799.3065, 78.99776
799.7886, 79.11937
800.2707, 78.82051
800.7528, 78.42527
801.2349, 78.38177
801.7170, 78.72614
802.1992, 78.83376
802.6813, 78.47946
803.1634, 78.17951
803.6455, 77.99599
804.1276, 77.89296
804.6097, 77.85661
805.0919, 77.87427
805.5740, 77.94180
806.0561, 78.14226
806.5382, 78.19476
807.0203, 77.62103
807.5024, 76.87135
807.9846, 76.75363
808.4667, 77.23683
808.9488, 77.78931
809.4309, 78.14884
809.9130, 78.24864
810.3951, 77.84881
810.8773, 76.87599
811.3594, 76.55137
811.8415, 77.18434
812.3236, 77.70937
812.8057, 77.67319
813.2878, 77.41380
813.7700, 77.32674
814.2521, 77.40002
814.7342, 77.39407
815.2163, 77.23701
815.6984, 77.04358
816.1805, 76.83012
816.6627, 76.61887
817.1448, 76.37212
817.6269, 76.14445
818.1090, 76.12855
818.5911, 76.46296
819.0732, 76.86380
819.5554, 76.91008
820.0375, 76.69542
820.5196, 76.57458
821.0017, 76.57763
821.4838, 76.64377
821.9659, 76.76128
822.4481, 76.87432
822.9302, 76.89463
823.4123, 76.81828
823.8944, 76.67146
824.3765, 76.40572
824.8586, 76.14552
825.3408, 76.35635
825.8229, 76.44392
826.3050, 76.41481
826.7871, 75.91963
827.2692, 76.02629
827.7513, 75.89177
828.2335, 75.74734
828.7156, 75.93871
829.1977, 75.51132
829.6798, 75.69737
830.1619, 75.63854
830.6440, 75.69180
831.1262, 75.50234
831.6083, 75.38787
832.0904, 75.51615
832.5725, 75.51002
833.0546, 75.29265
833.5367, 75.19984
834.0189, 75.35123
834.5010, 75.22724
834.9831, 74.96060
835.4652, 74.67993
835.9473, 74.38232
836.4294, 74.19529
836.9116, 74.17813
837.3937, 74.17953
837.8758, 74.17530
838.3579, 74.18102
838.8400, 74.26945
839.3221, 74.37240
839.8043, 74.28052
840.2864, 73.85942
840.7685, 73.51803
841.2506, 73.66213
841.7327, 74.02344
842.2148, 74.21642
842.6970, 74.26252
843.1791, 74.38074
843.6612, 74.64952
844.1433, 74.86044
844.6254, 74.72594
845.1075, 74.31068
845.5897, 74.11916
846.0718, 74.19917
846.5539, 74.27634
847.0360, 74.29279
847.5181, 74.29105
848.0002, 74.36681
848.4824, 74.45667
848.9645, 74.26026
849.4466, 73.46581
849.9287, 72.97518
850.4108, 73.18877
850.8929, 73.41830
851.3751, 73.19079
851.8572, 72.75113
852.3393, 72.49960
852.8214, 72.53226
853.3035, 72.70229
853.7856, 73.01799
854.2678, 73.33355
854.7499, 73.43218
855.2320, 73.38232
855.7141, 73.37971
856.1962, 73.45775
856.6783, 73.47623
857.1605, 73.30884
857.6426, 73.06797
858.1247, 73.14136
858.6068, 73.62387
859.0889, 73.59141
859.5710, 72.73784
860.0532, 71.99184
860.5353, 71.84759
861.0174, 72.05713
861.4995, 72.27688
861.9816, 72.54744
862.4637, 72.53902
862.9459, 71.95499
863.4280, 71.44751
863.9101, 71.21273
864.3922, 71.15134
864.8743, 71.17784
865.3564, 71.28467
865.8386, 71.51836
866.3207, 71.95727
866.8028, 72.35569
867.2849, 72.53359
867.7670, 72.52204
868.2491, 72.32706
868.7313, 71.98376
869.2134, 71.56057
869.6955, 71.08829
870.1776, 70.73167
870.6597, 70.76904
871.1418, 71.10306
871.6239, 70.96799
872.1060, 70.25974
872.5881, 69.83028
873.0703, 69.94263
873.5524, 70.23660
874.0345, 70.48521
874.5166, 70.66122
874.9987, 70.63681
875.4808, 70.13515
875.9630, 69.92088
876.4451, 70.32932
876.9272, 70.65763
877.4093, 70.53313
877.8914, 70.17671
878.3735, 69.84927
878.8557, 69.60043
879.3378, 69.45822
879.8199, 69.49979
880.3020, 69.58617
880.7841, 69.64560
881.2662, 69.66212
881.7484, 69.59492
882.2305, 69.45642
882.7126, 69.31560
883.1947, 69.21375
883.6768, 69.11496
884.1589, 68.95189
884.6411, 68.74004
885.1232, 68.53816
885.6053, 68.34544
886.0874, 68.33577
886.5695, 68.62761
887.0516, 68.91456
887.5338, 68.81322
888.0159, 68.35332
888.4980, 68.05163
888.9801, 67.87810
889.4622, 67.72902
889.9443, 67.97367
890.4265, 68.09501
890.9086, 68.09970
891.3907, 67.63831
891.8728, 67.77877
892.3549, 67.67803
892.8370, 67.56741
893.3192, 67.79256
893.8013, 67.39896
894.2834, 67.61880
894.7655, 67.59377
895.2476, 67.68079
895.7297, 67.52515
896.2119, 67.44445
896.6940, 67.60653
897.1761, 67.63418
897.6582, 67.45059
898.1403, 67.54475
898.6224, 67.14268
899.1046, 67.17604
899.5867, 67.22294
900.0688, 67.20122
900.5509, 67.18624
901.0330, 67.28320
901.5151, 67.46568
901.9973, 67.48042
902.4794, 67.29714
902.9615, 67.13835
903.4436, 67.08226
903.9257, 66.98038
904.4078, 66.64965
904.8900, 66.21112
905.3721, 66.08791
905.8542, 66.53916
906.3363, 66.72951
906.8184, 66.47714
907.3005, 66.19217
907.7827, 65.98042
908.2648, 65.83193
908.7469, 65.69028
909.2290, 65.57535
909.7111, 65.66354
910.1932, 66.33801
910.6754, 66.77818
911.1575, 66.24204
911.6396, 65.48608
912.1217, 65.40530
912.6038, 65.80507
913.0859, 65.94744
913.5681, 65.55952
914.0502, 65.10197
914.5323, 65.01670
915.0144, 65.17987
915.4965, 65.44813
915.9786, 65.75855
916.4608, 65.81294
916.9429, 65.55591
917.4250, 65.25206
917.9071, 65.10368
918.3892, 65.02811
918.8713, 64.74247
919.3535, 64.18901
919.8356, 64.15632
920.3177, 64.84343
920.7998, 65.46510
921.2819, 65.77271
921.7640, 65.77473
922.2462, 65.35023
922.7283, 64.51762
923.2104, 64.16704
923.6925, 64.77921
924.1746, 65.17194
924.6567, 65.27853
925.1389, 65.14489
925.6210, 64.52120
926.1031, 63.78137
926.5852, 63.62526
927.0673, 64.20951
927.5494, 64.61382
928.0316, 64.24383
928.5137, 63.90837
928.9958, 64.16817
929.4779, 64.68017
929.9600, 65.11473
930.4421, 65.37746
930.9243, 65.35573
931.4064, 64.95217
931.8885, 64.53648
932.3706, 64.56830
932.8527, 64.79923
933.3348, 64.72649
933.8170, 64.44599
934.2991, 64.44671
934.7812, 64.84724
935.2633, 65.21091
935.7454, 65.12301
936.2275, 64.76773
936.7097, 64.63056
937.1918, 64.70730
937.6739, 64.86179
938.1560, 65.11025
938.6381, 65.17506
939.1202, 64.84853
939.6024, 64.46660
940.0845, 64.54930
940.5666, 65.10632
941.0487, 65.57510
941.5308, 65.97163
942.0129, 66.23081
942.4951, 66.15778
942.9772, 66.15836
943.4593, 66.67825
943.9414, 67.41430
944.4235, 67.65303
944.9056, 67.12241
945.3878, 67.10066
945.8699, 68.28574
946.3520, 69.33689
946.8341, 69.45607
947.3162, 69.41805
947.7983, 70.09415
948.2805, 71.34933
948.7626, 72.39027
949.2447, 72.89860
949.7268, 73.34110
950.2089, 74.00020
950.6910, 74.71168
951.1732, 75.20599
951.6553, 75.66746
952.1374, 76.48096
952.6195, 77.70088
953.1016, 79.02927
953.5837, 80.27365
954.0659, 81.49696
954.5480, 82.84801
955.0301, 84.22575
955.5122, 85.32302
955.9943, 86.16520
956.4764, 87.10556
956.9586, 88.28928
957.4407, 89.45517
957.9228, 90.34323
958.4049, 90.92367
958.8870, 91.05086
959.3691, 90.71941
959.8513, 90.17728
960.3334, 89.46249
960.8155, 88.53355
961.2976, 87.33755
961.7797, 85.94910
962.2618, 84.49730
962.7440, 82.99413
963.2261, 81.25935
963.7082, 78.90343
964.1903, 77.24276
964.6724, 76.89198
965.1545, 76.91479
965.6367, 76.63656
966.1188, 76.15730
966.6009, 75.84124
967.0830, 75.88271
967.5651, 75.56497
968.0472, 74.56334
968.5294, 73.57780
969.0115, 72.90249
969.4936, 72.30276
969.9757, 71.50529
970.4578, 70.56456
970.9399, 69.78538
971.4221, 69.30110
971.9042, 68.84184
972.3863, 68.25875
972.8684, 67.71160
973.3505, 67.32065
973.8326, 67.03477
974.3148, 66.85696
974.7969, 66.72577
975.2790, 66.33266
975.7611, 65.30568
976.2432, 64.36266
976.7253, 64.28448
977.2075, 64.55324
977.6896, 64.49272
978.1717, 64.14272
978.6538, 63.75258
979.1359, 63.42352
979.6180, 63.25770
980.1002, 63.46544
980.5823, 63.72015
981.0644, 63.28988
981.5465, 62.44886
982.0286, 62.07771
982.5107, 62.23688
982.9929, 62.49410
983.4750, 62.65150
983.9571, 62.81324
984.4392, 63.15535
984.9213, 63.59560
985.4034, 63.70655
985.8856, 63.49190
986.3677, 63.41637
986.8498, 63.57673
987.3319, 63.69334
987.8140, 63.57344
988.2961, 63.39637
988.7783, 63.50611
989.2604, 63.91647
989.7425, 64.13775
990.2246, 64.05085
990.7067, 64.21783
991.1888, 64.85608
991.6710, 65.56990
992.1531, 66.11790
992.6352, 66.50960
993.1173, 66.74391
993.5994, 66.75216
994.0815, 66.87552
994.5637, 67.12592
995.0458, 67.47374
995.5279, 68.01592
996.0100, 68.55738
996.4921, 68.84700
996.9742, 69.02867
997.4564, 69.59285
997.9385, 70.89645
998.4206, 71.60291
998.9027, 71.09263
999.3848, 70.54414
999.8669, 70.51991
1000.349, 70.56557
1000.831, 70.22750
1001.313, 69.55126
1001.795, 68.81426
1002.278, 68.03992
1002.760, 67.33298
1003.242, 66.63979
1003.724, 66.11958
1004.206, 66.08427
1004.688, 66.14877
1005.170, 65.71091
1005.652, 64.85423
1006.134, 64.26883
1006.617, 64.29420
1007.099, 64.47378
1007.581, 64.64983
1008.063, 64.70711
1008.545, 64.41826
1009.027, 63.97325
1009.509, 63.66914
1009.991, 63.57957
1010.474, 63.69234
1010.956, 64.04556
1011.438, 64.44755
1011.920, 64.76314
1012.402, 64.96091
1012.884, 64.87305
1013.366, 64.64005
1013.848, 64.65237
1014.330, 64.99139
1014.813, 65.42930
1015.295, 65.79739
1015.777, 66.16879
1016.259, 66.73510
1016.741, 67.37085
1017.223, 67.74309
1017.705, 67.85743
1018.187, 67.84666
1018.669, 67.76045
1019.152, 67.64405
1019.634, 67.52188
1020.116, 67.43867
1020.598, 67.53724
1021.080, 67.77606
1021.562, 67.89397
1022.044, 67.87924
1022.526, 67.87206
1023.008, 67.92515
1023.491, 67.93652
1023.973, 67.79744
1024.455, 67.55773
1024.937, 67.36396
1025.419, 67.21672
1025.901, 67.16338
1026.383, 67.23662
1026.865, 67.05840
1027.348, 66.44224
1027.830, 65.71952
1028.312, 65.23928
1028.794, 64.94746
1029.276, 64.59705
1029.758, 64.17520
1030.240, 63.80550
1030.722, 63.54156
1031.204, 63.11222
1031.687, 62.29098
1032.169, 61.53862
1032.651, 61.41550
1033.133, 61.79511
1033.615, 61.95881
1034.097, 61.92775
1034.579, 61.57224
1035.061, 60.69157
1035.544, 59.91814
1036.026, 59.51748
1036.508, 59.29300
1036.990, 59.01905
1037.472, 58.72407
1037.954, 58.61798
1038.436, 58.80046
1038.918, 58.96582
1039.401, 59.21125
1039.883, 59.27709
1040.365, 58.99556
1040.847, 58.55600
1041.329, 58.07883
1041.811, 57.59850
1042.293, 57.38335
1042.775, 57.67022
1043.257, 57.81031
1043.740, 57.70167
1044.222, 57.57366
1044.704, 57.44611
1045.186, 57.37785
1045.668, 57.49422
1046.150, 57.74120
1046.632, 57.81250
1047.114, 57.58981
1047.596, 57.39668
1048.079, 57.28505
1048.561, 57.17207
1049.043, 56.99471
1049.525, 56.82549
1050.007, 56.78577
1050.489, 56.82630
1050.971, 56.70977
1051.453, 56.26447
1051.936, 56.01149
1052.418, 56.21352
1052.900, 56.40623
1053.382, 56.38961
1053.864, 56.27567
1054.346, 56.07087
1054.828, 55.87174
1055.310, 56.01239
1055.792, 56.73382
1056.275, 57.20528
1056.757, 57.05372
1057.239, 56.81860
1057.721, 56.72156
1058.203, 56.66961
1058.685, 56.56407
1059.167, 56.41516
1059.649, 56.25561
1060.131, 56.05511
1060.614, 56.02091
1061.096, 56.51490
1061.578, 56.82411
1062.060, 56.31012
1062.542, 55.70594
1063.024, 55.85918
1063.506, 56.49101
1063.988, 56.72945
1064.471, 56.32988
1064.953, 55.95592
1065.435, 55.88127
1065.917, 55.85228
1066.399, 55.75023
1066.881, 55.63353
1067.363, 55.53900
1067.845, 55.48180
1068.328, 55.48342
1068.810, 55.54957
1069.292, 55.64341
1069.774, 55.77711
1070.256, 55.90123
1070.738, 56.06541
1071.220, 56.14267
1071.702, 55.92625
1072.184, 55.57218
1072.667, 55.37030
1073.149, 55.38047
1073.631, 55.51696
1074.113, 55.88823
1074.595, 56.18904
1075.077, 56.17607
1075.559, 56.12248
1076.041, 56.31421
1076.523, 56.60339
1077.006, 56.70536
1077.488, 56.58860
1077.970, 56.46217
1078.452, 56.42907
1078.934, 56.37039
1079.416, 56.11584
1079.898, 55.92834
1080.380, 56.13979
1080.863, 56.48138
1081.345, 56.53591
1081.827, 56.28883
1082.309, 56.02761
1082.791, 55.76905
1083.273, 55.72956
1083.755, 56.28078
1084.237, 56.79488
1084.719, 56.74077
1085.202, 56.44726
1085.684, 56.35254
1086.166, 56.44880
1086.648, 56.46418
1087.130, 56.28004
1087.612, 56.14808
1088.094, 56.19949
1088.576, 56.31179
1089.058, 56.47050
1089.541, 56.60541
1090.023, 56.61380
1090.505, 56.54099
1090.987, 56.53565
1091.469, 56.64726
1091.951, 56.72297
1092.433, 56.59601
1092.915, 56.55269
1093.397, 56.86780
1093.880, 57.21210
1094.362, 57.28460
1094.844, 57.15443
1095.326, 56.96231
1095.808, 56.73524
1096.290, 56.68632
1096.772, 57.02409
1097.254, 57.36571
1097.737, 57.56001
1098.219, 57.71098
1098.701, 57.99027
1099.183, 58.22686
1099.665, 58.04898
1100.147, 57.47729
1100.629, 57.15888
1101.111, 57.42653
1101.594, 57.70441
1102.076, 57.95049
1102.558, 58.03040
1103.040, 57.65751
1103.522, 57.21998
1104.004, 57.32829
1104.486, 57.84370
1104.968, 57.88586
1105.450, 57.05441
1105.932, 56.37059
1106.415, 56.07565
1106.897, 55.91899
1107.379, 55.85944
1107.861, 55.84336
1108.343, 55.82882
1108.825, 55.82154
1109.307, 55.86536
1109.789, 56.00581
1110.272, 56.00683
1110.754, 55.64137
1111.236, 55.41203
1111.718, 55.59833
1112.200, 55.79957
1112.682, 55.63923
1113.164, 55.36143
1113.646, 55.51945
1114.129, 56.19578
1114.611, 56.35392
1115.093, 55.37331
1115.575, 54.78103
1116.057, 54.92103
1116.539, 55.19304
1117.021, 55.43792
1117.503, 55.59862
1117.985, 55.58927
1118.468, 55.42527
1118.950, 55.24178
1119.432, 55.01365
1119.914, 54.80790
1120.396, 54.53412
1120.878, 54.45459
1121.360, 54.71238
1121.842, 55.11766
1122.324, 55.58502
1122.807, 56.02904
1123.289, 56.18148
1123.771, 55.98083
1124.253, 55.81733
1124.735, 55.69633
1125.217, 55.59175
1125.699, 55.46833
1126.181, 55.45704
1126.664, 55.70168
1127.146, 55.99638
1127.628, 55.99062
1128.110, 55.69602
1128.592, 55.29736
1129.074, 54.72424
1129.556, 54.52856
1130.038, 54.85530
1130.521, 55.07459
1131.003, 54.88723
1131.485, 54.61037
1131.967, 54.60435
1132.449, 54.76789
1132.931, 54.71977
1133.413, 54.46387
1133.895, 54.42206
1134.377, 54.61870
1134.859, 54.46653
1135.342, 53.78417
1135.824, 53.31692
1136.306, 53.64611
1136.788, 54.28117
1137.270, 54.30919
1137.752, 53.87322
1138.234, 53.69476
1138.716, 53.71343
1139.199, 53.48964
1139.681, 53.00335
1140.163, 52.79330
1140.645, 53.10842
1141.127, 53.47183
1141.609, 53.29114
1142.091, 52.92653
1142.573, 53.21547
1143.056, 53.84015
1143.538, 53.98542
1144.020, 53.71083
1144.502, 53.45815
1144.984, 53.37229
1145.466, 53.46133
1145.948, 53.76448
1146.430, 54.10270
1146.912, 54.25423
1147.395, 54.33756
1147.877, 54.63192
1148.359, 54.92632
1148.841, 54.67576
1149.323, 54.01369
1149.805, 53.67847
1150.287, 53.97260
1150.769, 54.26478
1151.251, 53.96846
1151.734, 53.68237
1152.216, 53.86147
1152.698, 54.28713
1153.180, 54.86736
1153.662, 55.44706
1154.144, 55.79997
1154.626, 55.89306
1155.108, 55.83467
1155.591, 55.55291
1156.073, 55.34646
1156.555, 55.36501
1157.037, 55.45405
1157.519, 55.61103
1158.001, 55.72190
1158.483, 55.63054
1158.965, 55.39065
1159.448, 55.18089
1159.930, 54.99088
1160.412, 54.97943
1160.894, 55.43295
1161.376, 55.68830
1161.858, 55.51928
1162.340, 55.18891
1162.822, 54.71682
1163.304, 54.27067
1163.786, 54.13989
1164.269, 54.30985
1164.751, 54.34011
1165.233, 54.18850
1165.715, 54.00296
1166.197, 53.80686
1166.679, 53.51454
1167.161, 52.99895
1167.643, 52.59566
1168.126, 52.62480
1168.608, 52.94818
1169.090, 53.25292
1169.572, 53.55142
1170.054, 53.44753
1170.536, 52.87429
1171.018, 52.72980
1171.500, 53.22398
1171.983, 53.46109
1172.465, 52.95333
1172.947, 52.26333
1173.429, 52.08608
1173.911, 52.23215
1174.393, 52.13603
1174.875, 51.86029
1175.357, 51.76523
1175.839, 51.81902
1176.322, 51.64828
1176.804, 51.18588
1177.286, 50.77120
1177.768, 50.62201
1178.250, 50.64809
1178.732, 50.81842
1179.214, 51.03519
1179.696, 51.08733
1180.178, 51.09276
1180.661, 51.35284
1181.143, 51.77543
1181.625, 51.99306
1182.107, 51.89988
1182.589, 51.71814
1183.071, 51.54830
1183.553, 51.39418
1184.035, 51.34754
1184.518, 51.22723
1185.000, 50.68378
1185.482, 50.08976
1185.964, 50.04276
1186.446, 50.44710
1186.928, 50.73034
1187.410, 50.76314
1187.892, 50.65511
1188.375, 50.17990
1188.857, 49.92426
1189.339, 50.32288
1189.821, 50.74810
1190.303, 50.80109
1190.785, 50.60741
1191.267, 50.28117
1191.749, 49.85557
1192.231, 49.76073
1192.714, 50.25409
1193.196, 50.48657
1193.678, 50.31651
1194.160, 50.19635
1194.642, 50.31363
1195.124, 50.36652
1195.606, 50.07574
1196.088, 49.67211
1196.570, 49.62965
1197.053, 49.91959
1197.535, 50.16592
1198.017, 50.37405
1198.499, 50.17301
1198.981, 49.52362
1199.463, 49.18158
1199.945, 49.44160
1200.427, 49.85344
1200.910, 50.04067
1201.392, 50.06320
1201.874, 49.98766
1202.356, 49.84908
1202.838, 49.75100
1203.320, 49.66557
1203.802, 49.44320
1204.284, 49.13275
1204.766, 49.04387
1205.249, 49.28774
1205.731, 49.53477
1206.213, 49.51426
1206.695, 49.42981
1207.177, 49.46204
1207.659, 49.51733
1208.141, 49.50999
1208.623, 49.45398
1209.105, 49.37752
1209.588, 49.28542
1210.070, 49.16374
1210.552, 48.98815
1211.034, 48.88224
1211.516, 48.91189
1211.998, 48.97659
1212.480, 49.11308
1212.962, 49.20028
1213.445, 49.07660
1213.927, 48.90916
1214.409, 48.96249
1214.891, 49.20631
1215.373, 49.38545
1215.855, 49.55237
1216.337, 49.47357
1216.819, 49.03233
1217.302, 48.69830
1217.784, 48.57404
1218.266, 48.66400
1218.748, 49.01286
1219.230, 49.43322
1219.712, 49.64866
1220.194, 49.67106
1220.676, 49.49241
1221.158, 49.15042
1221.641, 48.97366
1222.123, 48.94679
1222.605, 48.71497
1223.087, 48.21440
1223.569, 47.83864
1224.051, 47.84618
1224.533, 48.01495
1225.015, 48.13585
1225.497, 48.22826
1225.979, 48.41888
1226.462, 48.53032
1226.944, 48.08898
1227.426, 47.40285
1227.908, 47.27641
1228.390, 47.81272
1228.872, 48.32450
1229.354, 48.56681
1229.836, 48.67467
1230.319, 48.65389
1230.801, 48.57269
1231.283, 48.41203
1231.765, 48.25439
1232.247, 48.33367
1232.729, 48.40747
1233.211, 47.74320
1233.693, 46.30944
1234.176, 45.93957
1234.658, 47.23204
1235.140, 48.03545
1235.622, 48.06102
1236.104, 48.13752
1236.586, 48.57960
1237.068, 48.95959
1237.550, 48.94501
1238.032, 48.67723
1238.515, 48.35440
1238.997, 48.02832
1239.479, 48.11066
1239.961, 48.48700
1240.443, 48.35451
1240.925, 47.76896
1241.407, 47.56832
1241.889, 47.95799
1242.371, 48.28265
1242.854, 48.08469
1243.336, 47.84483
1243.818, 48.23677
1244.300, 48.67177
1244.782, 48.33346
1245.264, 47.77498
1245.746, 47.81891
1246.228, 48.21043
1246.711, 48.18451
1247.193, 47.67089
1247.675, 47.40664
1248.157, 47.80353
1248.639, 48.03587
1249.121, 47.61938
1249.603, 47.40382
1250.085, 48.09568
1250.568, 48.64930
1251.050, 48.19725
1251.532, 47.30964
1252.014, 46.90365
1252.496, 46.94736
1252.978, 47.08972
1253.460, 47.34159
1253.942, 47.64923
1254.424, 48.02826
1254.906, 48.18840
1255.389, 48.04663
1255.871, 47.92195
1256.353, 48.01654
1256.835, 48.15709
1257.317, 48.12632
1257.799, 47.98106
1258.281, 47.78255
1258.763, 47.58331
1259.246, 47.43214
1259.728, 47.39149
1260.210, 47.72194
1260.692, 48.32164
1261.174, 48.58268
1261.656, 48.23235
1262.138, 47.79939
1262.620, 47.53056
1263.103, 47.28870
1263.585, 46.93262
1264.067, 46.66299
1264.549, 46.61301
1265.031, 46.73950
1265.513, 47.06309
1265.995, 47.50883
1266.477, 47.77442
1266.959, 47.83556
1267.442, 47.80918
1267.924, 47.62062
1268.406, 47.66269
1268.888, 48.06332
1269.370, 48.33224
1269.852, 48.24408
1270.334, 48.01472
1270.816, 47.83038
1271.298, 47.72576
1271.781, 47.80864
1272.263, 48.01394
1272.745, 48.21280
1273.227, 48.36018
1273.709, 48.29034
1274.191, 48.06531
1274.673, 47.95419
##END=



