##NAMES=Calaverite
##RRUFFID=R070397
##IDEAL CHEMISTRY=AuTe_2_
##LOCALITY=Sacarambu, Transylvania, Romania
##OWNER=RRUFF
##SOURCE=Michael Scott
##DESCRIPTION=Gold metallic massive associated with quartz
##STATUS=The identification of this mineral is confirmed by single-crystal X-ray diffraction and chemical analysis.
##URL=rruff.info/R070397
##MEASURED CHEMISTRY=(Au_0.95_Ag_0.05_)_Î£=1_Te_2.00_
169.9107, 506.7996
170.3929, 509.8444
170.8750, 511.6506
171.3571, 511.3766
171.8392, 509.2214
172.3213, 504.5116
172.8034, 496.1917
173.2856, 488.6836
173.7677, 486.9120
174.2498, 489.6794
174.7319, 492.8851
175.2140, 493.2990
175.6961, 492.7479
176.1783, 494.7359
176.6604, 501.5981
177.1425, 508.0710
177.6246, 505.1334
178.1067, 494.3503
178.5888, 485.6991
179.0710, 489.3977
179.5531, 500.6221
180.0352, 508.6520
180.5173, 510.1432
180.9994, 507.9739
181.4815, 506.6306
181.9637, 506.0589
182.4458, 504.9411
182.9279, 500.3470
183.4100, 493.7633
183.8921, 490.8493
184.3742, 494.5573
184.8564, 502.3800
185.3385, 509.4408
185.8206, 515.9485
186.3027, 519.8926
186.7848, 517.9886
187.2669, 510.9386
187.7491, 503.9716
188.2312, 497.5214
188.7133, 492.5168
189.1954, 493.3804
189.6775, 500.9477
190.1596, 510.6562
190.6418, 518.8715
191.1239, 525.4490
191.6060, 526.9352
192.0881, 517.8878
192.5702, 500.2748
193.0524, 492.4968
193.5345, 496.3346
194.0166, 505.3758
194.4987, 509.5551
194.9808, 508.4958
195.4629, 508.2737
195.9451, 513.7924
196.4272, 524.9022
196.9093, 528.3890
197.3914, 521.8198
197.8735, 510.8009
198.3556, 505.3170
198.8378, 505.6356
199.3199, 509.7427
199.8020, 519.1712
200.2841, 534.6567
200.7662, 542.5298
201.2483, 540.0036
201.7305, 531.2692
202.2126, 526.5073
202.6947, 526.3569
203.1768, 527.7944
203.6589, 529.2372
204.1410, 530.6729
204.6232, 532.1572
205.1053, 533.8356
205.5874, 535.5044
206.0695, 536.6503
206.5516, 537.4911
207.0337, 537.2359
207.5159, 534.6433
207.9980, 528.8575
208.4801, 525.0912
208.9622, 524.3248
209.4443, 526.0591
209.9264, 528.4911
210.4086, 532.8734
210.8907, 535.4318
211.3728, 532.1404
211.8549, 520.3994
212.3370, 511.6647
212.8191, 507.9908
213.3013, 508.8979
213.7834, 510.0990
214.2655, 511.3164
214.7476, 513.2874
215.2297, 517.0328
215.7118, 523.7365
216.1940, 528.9908
216.6761, 531.7460
217.1582, 532.1268
217.6403, 532.7955
218.1224, 534.7132
218.6045, 535.6324
219.0867, 532.7252
219.5688, 523.6188
220.0509, 516.3542
220.5330, 512.9054
221.0151, 513.2901
221.4972, 514.2343
221.9794, 515.3518
222.4615, 517.4632
222.9436, 522.0235
223.4257, 531.3552
223.9078, 538.4081
224.3899, 541.4945
224.8721, 540.5082
225.3542, 537.0853
225.8363, 529.0179
226.3184, 520.5750
226.8005, 517.2874
227.2827, 522.6157
227.7648, 526.5293
228.2469, 526.2321
228.7290, 521.1538
229.2111, 515.9746
229.6932, 508.9328
230.1754, 503.2727
230.6575, 504.0406
231.1396, 516.0027
231.6217, 525.9167
232.1038, 529.5433
232.5859, 525.3987
233.0681, 522.9811
233.5502, 523.0173
234.0323, 524.2582
234.5144, 524.7777
234.9965, 523.6015
235.4786, 523.4005
235.9608, 525.6313
236.4429, 531.4641
236.9250, 533.9531
237.4071, 531.2618
237.8892, 526.3425
238.3713, 523.9995
238.8535, 525.7983
239.3356, 527.5362
239.8177, 527.5536
240.2998, 524.8716
240.7819, 524.4402
241.2640, 527.6694
241.7462, 532.3217
242.2283, 534.3608
242.7104, 532.0428
243.1925, 529.9768
243.6746, 529.7127
244.1567, 531.7139
244.6389, 534.0386
245.1210, 536.9750
245.6031, 540.0577
246.0852, 542.8043
246.5673, 546.7076
247.0494, 547.6635
247.5316, 543.0137
248.0137, 529.4057
248.4958, 521.6436
248.9779, 521.1245
249.4600, 525.7311
249.9421, 532.5242
250.4243, 545.0938
250.9064, 553.4531
251.3885, 552.0093
251.8706, 535.0125
252.3527, 528.1642
252.8348, 536.0085
253.3170, 551.1520
253.7991, 559.4567
254.2812, 558.3383
254.7633, 555.1536
255.2454, 552.0412
255.7275, 548.3890
256.2097, 547.3779
256.6918, 549.9987
257.1739, 554.5887
257.6560, 558.4926
258.1381, 562.4902
258.6202, 564.1559
259.1024, 561.7867
259.5845, 553.7982
260.0666, 548.6868
260.5487, 547.7271
261.0308, 548.6888
261.5129, 546.9682
261.9951, 540.9566
262.4772, 536.1832
262.9593, 536.1020
263.4414, 542.9683
263.9235, 542.5090
264.4056, 530.1993
264.8878, 514.7842
265.3699, 513.6023
265.8520, 532.7659
266.3341, 548.6290
266.8162, 549.7349
267.2983, 532.4448
267.7805, 524.6443
268.2626, 529.8945
268.7447, 540.7720
269.2268, 544.5140
269.7089, 539.8239
270.1910, 532.6002
270.6732, 523.2971
271.1553, 511.0889
271.6374, 506.0823
272.1195, 509.7195
272.6016, 518.4512
273.0837, 527.9113
273.5659, 539.1086
274.0480, 546.1713
274.5301, 545.8726
275.0122, 537.9360
275.4943, 529.3350
275.9764, 518.7457
276.4586, 509.9840
276.9407, 510.0376
277.4228, 519.8364
277.9049, 530.2835
278.3870, 538.8163
278.8691, 545.3547
279.3513, 547.3595
279.8334, 543.9014
280.3155, 538.2989
280.7976, 535.3423
281.2798, 535.2161
281.7619, 533.9925
282.2440, 529.3015
282.7261, 521.8338
283.2082, 516.8563
283.6903, 514.5333
284.1725, 514.0980
284.6546, 515.1027
285.1367, 517.4890
285.6188, 520.0457
286.1009, 523.4446
286.5830, 526.7725
287.0652, 524.5541
287.5473, 515.8506
288.0294, 507.3270
288.5115, 508.1495
288.9936, 517.0804
289.4757, 523.6440
289.9579, 521.8918
290.4400, 515.8817
290.9221, 518.5211
291.4042, 530.4818
291.8863, 542.7019
292.3684, 546.3836
292.8506, 542.5463
293.3327, 535.4670
293.8148, 523.9412
294.2969, 511.4296
294.7790, 504.1973
295.2611, 502.2437
295.7433, 504.2947
296.2254, 513.0172
296.7075, 525.3312
297.1896, 531.9915
297.6717, 527.6609
298.1538, 518.8362
298.6360, 516.1923
299.1181, 519.1429
299.6002, 521.0491
300.0823, 513.3240
300.5644, 501.3276
301.0465, 495.4192
301.5287, 500.2364
302.0108, 509.8004
302.4929, 518.9372
302.9750, 527.5189
303.4571, 534.2950
303.9392, 539.4983
304.4214, 542.1448
304.9035, 540.1339
305.3856, 529.7944
305.8677, 519.8651
306.3498, 519.4728
306.8319, 526.4580
307.3141, 533.2272
307.7962, 537.1644
308.2783, 537.7844
308.7604, 533.1690
309.2425, 519.1879
309.7246, 508.3901
310.2068, 513.2374
310.6889, 528.0906
311.1710, 538.3483
311.6531, 532.2220
312.1352, 521.7087
312.6173, 515.7905
313.0995, 517.1731
313.5816, 519.6519
314.0637, 519.6751
314.5458, 518.8251
315.0279, 520.0707
315.5100, 528.6936
315.9922, 536.5890
316.4743, 538.7480
316.9564, 533.1972
317.4385, 527.7133
317.9206, 525.3375
318.4027, 524.4544
318.8849, 522.8064
319.3670, 518.7841
319.8491, 514.7774
320.3312, 511.0089
320.8133, 507.0413
321.2954, 506.1495
321.7776, 512.0108
322.2597, 520.0706
322.7418, 525.4744
323.2239, 526.2493
323.7060, 525.5792
324.1881, 522.9244
324.6703, 517.8691
325.1524, 516.2985
325.6345, 523.7020
326.1166, 532.0688
326.5987, 534.9786
327.0808, 526.2424
327.5630, 519.2885
328.0451, 515.9252
328.5272, 516.0188
329.0093, 516.7535
329.4914, 519.1473
329.9735, 521.2449
330.4557, 521.7549
330.9378, 520.1179
331.4199, 517.7613
331.9020, 514.0759
332.3841, 509.6270
332.8662, 507.2649
333.3484, 507.7112
333.8305, 509.1857
334.3126, 510.8839
334.7947, 512.9907
335.2768, 514.4543
335.7589, 514.2688
336.2411, 513.9363
336.7232, 518.2730
337.2053, 529.3615
337.6874, 538.9383
338.1695, 542.1458
338.6516, 537.9380
339.1338, 536.6995
339.6159, 539.6662
340.0980, 543.9647
340.5801, 544.7415
341.0622, 541.7752
341.5443, 537.2615
342.0265, 531.3771
342.5086, 524.4002
342.9907, 518.0334
343.4728, 512.0439
343.9549, 507.7958
344.4370, 507.7502
344.9192, 511.5451
345.4013, 515.9493
345.8834, 520.8986
346.3655, 525.3118
346.8476, 525.2595
347.3297, 520.6192
347.8119, 515.2518
348.2940, 512.2710
348.7761, 511.4246
349.2582, 512.3013
349.7403, 516.4592
350.2225, 520.5733
350.7046, 519.1359
351.1867, 512.7067
351.6688, 505.6999
352.1509, 497.9296
352.6331, 492.4563
353.1152, 495.2140
353.5973, 511.7381
354.0794, 528.8304
354.5615, 534.8090
355.0436, 531.6837
355.5258, 525.5730
356.0079, 518.1234
356.4900, 510.1098
356.9721, 501.2710
357.4542, 490.1810
357.9363, 482.9696
358.4185, 485.7840
358.9006, 494.5199
359.3827, 502.0763
359.8648, 505.9924
360.3469, 507.7726
360.8290, 507.0942
361.3112, 503.2955
361.7933, 501.8952
362.2754, 509.4446
362.7575, 518.4929
363.2396, 520.9511
363.7217, 503.5944
364.2039, 490.8323
364.6860, 492.3580
365.1681, 508.4835
365.6502, 518.7031
366.1323, 516.8494
366.6144, 510.7834
367.0966, 505.8393
367.5787, 498.9373
368.0608, 497.3602
368.5429, 505.6075
369.0250, 520.8553
369.5071, 528.2150
369.9893, 522.5607
370.4714, 514.9960
370.9535, 510.4539
371.4356, 508.6869
371.9177, 511.1988
372.3998, 521.1976
372.8820, 533.8854
373.3641, 537.7182
373.8462, 529.6021
374.3283, 520.6031
374.8104, 514.0989
375.2925, 509.7940
375.7747, 512.6581
376.2568, 525.8849
376.7389, 540.0059
377.2210, 540.2211
377.7031, 525.4601
378.1852, 512.2613
378.6674, 505.9225
379.1495, 505.1591
379.6316, 503.8840
380.1137, 501.8544
380.5958, 501.6088
381.0779, 507.5657
381.5601, 518.1710
382.0422, 525.0045
382.5243, 525.1081
383.0064, 522.1356
383.4885, 522.6714
383.9706, 526.1661
384.4528, 528.5325
384.9349, 525.1758
385.4170, 519.3426
385.8991, 516.8155
386.3812, 519.2890
386.8633, 522.3215
387.3455, 521.7813
387.8276, 518.6339
388.3097, 515.0582
388.7918, 511.3213
389.2739, 508.1597
389.7560, 505.7201
390.2382, 503.8806
390.7203, 504.3990
391.2024, 511.5762
391.6845, 520.4857
392.1666, 525.5260
392.6487, 522.8449
393.1309, 517.7420
393.6130, 509.8901
394.0951, 499.9544
394.5772, 495.0833
395.0593, 503.6827
395.5414, 513.7468
396.0236, 517.6715
396.5057, 504.9028
396.9878, 497.2452
397.4699, 499.3782
397.9520, 508.4583
398.4341, 515.6001
398.9163, 522.2614
399.3984, 525.4072
399.8805, 522.6274
400.3626, 509.4732
400.8447, 503.9645
401.3268, 509.4235
401.8090, 520.0851
402.2911, 528.2936
402.7732, 533.8428
403.2553, 537.1850
403.7374, 537.8029
404.2195, 535.8950
404.7017, 535.4197
405.1838, 537.0380
405.6659, 538.2902
406.1480, 536.7108
406.6301, 532.2619
407.1122, 527.1763
407.5944, 521.0407
408.0765, 515.3282
408.5586, 514.6390
409.0407, 518.8688
409.5228, 522.9572
410.0049, 522.9303
410.4871, 520.1404
410.9692, 517.8514
411.4513, 516.0010
411.9334, 516.2606
412.4155, 523.3511
412.8976, 534.5905
413.3798, 542.0266
413.8619, 537.5760
414.3440, 530.2363
414.8261, 531.1199
415.3082, 540.3992
415.7903, 547.4361
416.2725, 542.8499
416.7546, 533.1279
417.2367, 525.3589
417.7188, 519.9348
418.2009, 519.1340
418.6830, 529.3605
419.1652, 546.6072
419.6473, 555.7671
420.1294, 543.0453
420.6115, 527.4556
421.0937, 519.2068
421.5758, 522.2656
422.0579, 527.4024
422.5400, 537.5242
423.0221, 548.1839
423.5042, 552.1620
423.9864, 541.7136
424.4685, 533.0349
424.9506, 530.5914
425.4327, 535.1215
425.9148, 536.5120
426.3969, 532.5087
426.8791, 527.9354
427.3612, 527.4566
427.8433, 532.8888
428.3254, 536.4590
428.8075, 536.0519
429.2896, 533.4542
429.7718, 536.3900
430.2539, 546.5807
430.7360, 553.3421
431.2181, 546.0820
431.7002, 526.3967
432.1823, 519.5143
432.6645, 528.9893
433.1466, 543.5980
433.6287, 548.2922
434.1108, 544.4911
434.5929, 538.9875
435.0750, 532.5930
435.5572, 527.1250
436.0393, 527.1721
436.5214, 532.4608
437.0035, 537.1964
437.4856, 535.3017
437.9677, 530.4609
438.4499, 528.0959
438.9320, 531.2527
439.4141, 534.3540
439.8962, 532.0792
440.3783, 526.5277
440.8604, 523.0448
441.3426, 527.4279
441.8247, 531.9881
442.3068, 531.0265
442.7889, 521.9333
443.2710, 516.9816
443.7531, 523.5358
444.2353, 534.3035
444.7174, 541.3345
445.1995, 539.6505
445.6816, 538.2914
446.1637, 538.9290
446.6458, 541.3607
447.1280, 543.4542
447.6101, 544.7185
448.0922, 546.1952
448.5743, 548.6558
449.0564, 553.0883
449.5385, 556.0903
450.0207, 558.0034
450.5028, 558.0699
450.9849, 553.0980
451.4670, 541.3165
451.9491, 533.8881
452.4312, 537.6406
452.9134, 550.4824
453.3955, 555.0472
453.8776, 550.4071
454.3597, 544.0898
454.8418, 543.6256
455.3239, 547.8399
455.8061, 552.3383
456.2882, 557.3729
456.7703, 560.3721
457.2524, 554.7582
457.7345, 542.9066
458.2166, 534.4182
458.6988, 537.9538
459.1809, 546.4480
459.6630, 552.4627
460.1451, 555.1071
460.6272, 556.6370
461.1093, 558.0725
461.5915, 559.3478
462.0736, 560.3497
462.5557, 561.8075
463.0378, 562.2390
463.5199, 560.1212
464.0020, 555.9561
464.4842, 553.3995
464.9663, 554.0660
465.4484, 555.9330
465.9305, 558.2663
466.4126, 564.1993
466.8947, 564.8336
467.3769, 556.1301
467.8590, 543.9127
468.3411, 537.6671
468.8232, 539.3508
469.3053, 543.5569
469.7874, 550.8266
470.2696, 560.6028
470.7517, 560.7911
471.2338, 548.5177
471.7159, 535.5214
472.1980, 533.0961
472.6801, 540.9747
473.1623, 547.1042
473.6444, 549.4553
474.1265, 550.0565
474.6086, 552.6728
475.0907, 556.9095
475.5728, 560.2136
476.0550, 560.4875
476.5371, 559.2288
477.0192, 559.6277
477.5013, 561.8445
477.9834, 562.1045
478.4655, 553.8666
478.9477, 543.0310
479.4298, 537.6754
479.9119, 544.5812
480.3940, 551.8763
480.8761, 552.1738
481.3582, 547.7989
481.8404, 545.4223
482.3225, 549.3035
482.8046, 553.9565
483.2867, 556.9080
483.7688, 557.5299
484.2509, 557.8962
484.7331, 558.6519
485.2152, 558.9734
485.6973, 558.0294
486.1794, 555.0893
486.6615, 552.0665
487.1436, 548.8939
487.6258, 545.8109
488.1079, 543.8688
488.5900, 543.0082
489.0721, 543.5084
489.5542, 546.9145
490.0363, 553.3099
490.5185, 553.6334
491.0006, 545.9774
491.4827, 537.8360
491.9648, 541.8232
492.4470, 555.3195
492.9291, 563.4535
493.4112, 557.1804
493.8933, 546.1073
494.3754, 547.1011
494.8575, 558.2043
495.3397, 567.0394
495.8218, 561.2319
496.3039, 551.0156
496.7860, 548.8518
497.2681, 559.0344
497.7502, 567.3774
498.2324, 563.0765
498.7145, 553.3423
499.1966, 547.8969
499.6787, 555.9756
500.1608, 562.3926
500.6429, 561.6993
501.1251, 554.2542
501.6072, 547.4076
502.0893, 538.3098
502.5714, 532.8026
503.0535, 534.3453
503.5356, 547.4807
504.0178, 556.7842
504.4999, 561.5118
504.9820, 562.9750
505.4641, 562.3631
505.9462, 558.8983
506.4283, 557.7252
506.9105, 562.0295
507.3926, 569.3719
507.8747, 568.2287
508.3568, 558.0775
508.8389, 548.9761
509.3210, 550.0690
509.8032, 557.8940
510.2853, 562.2485
510.7674, 561.0221
511.2495, 559.9105
511.7316, 568.7133
512.2137, 581.7686
512.6959, 587.4802
513.1780, 571.4739
513.6601, 554.5380
514.1422, 552.3716
514.6243, 562.8737
515.1064, 570.7767
515.5886, 566.5035
516.0707, 560.3115
516.5528, 558.9938
517.0349, 567.6170
517.5170, 572.2751
517.9991, 568.0771
518.4813, 560.5772
518.9634, 556.6475
519.4455, 557.1973
519.9276, 560.1404
520.4097, 567.5922
520.8918, 577.6429
521.3740, 576.1422
521.8561, 559.1765
522.3382, 543.6221
522.8203, 542.5275
523.3024, 554.8660
523.7845, 562.8373
524.2667, 565.2523
524.7488, 564.1881
525.2309, 560.2578
525.7130, 554.6493
526.1951, 551.5552
526.6772, 552.7947
527.1594, 556.8646
527.6415, 564.5113
528.1236, 574.3157
528.6057, 580.1616
529.0878, 574.8321
529.5699, 566.5739
530.0521, 561.9967
530.5342, 562.9441
531.0163, 562.8451
531.4984, 556.0832
531.9805, 548.7041
532.4626, 547.0939
532.9448, 560.2338
533.4269, 569.3917
533.9090, 570.8437
534.3911, 566.6192
534.8732, 564.7179
535.3553, 566.5903
535.8375, 568.0182
536.3196, 566.7830
536.8017, 562.6754
537.2838, 560.2830
537.7659, 559.9951
538.2480, 560.0650
538.7302, 558.0424
539.2123, 554.3699
539.6944, 552.3029
540.1765, 552.8024
540.6586, 554.7359
541.1407, 557.2913
541.6229, 560.1182
542.1050, 562.0079
542.5871, 560.9482
543.0692, 559.5550
543.5513, 560.4073
544.0334, 563.6183
544.5156, 567.0140
544.9977, 569.6281
545.4798, 571.9796
545.9619, 574.6289
546.4440, 580.5146
546.9261, 582.4825
547.4083, 575.5281
547.8904, 564.8173
548.3725, 559.8674
548.8546, 563.8294
549.3367, 568.3557
549.8188, 571.6667
550.3010, 573.8239
550.7831, 575.2958
551.2652, 575.7601
551.7473, 576.6218
552.2294, 580.5797
552.7115, 586.8717
553.1937, 585.7180
553.6758, 574.5552
554.1579, 563.3857
554.6400, 567.6951
555.1221, 582.4036
555.6042, 592.7126
556.0864, 590.1115
556.5685, 584.2467
557.0506, 586.4575
557.5327, 593.9050
558.0148, 595.9446
558.4969, 580.1505
558.9791, 562.7721
559.4612, 553.9650
559.9433, 556.0196
560.4254, 560.2726
560.9075, 567.6529
561.3896, 575.1721
561.8718, 580.3853
562.3539, 583.1115
562.8360, 583.6080
563.3181, 580.6186
563.8002, 576.0132
564.2823, 574.8196
564.7645, 578.0225
565.2466, 580.1204
565.7287, 577.5283
566.2108, 571.9360
566.6929, 573.2285
567.1750, 581.7189
567.6572, 589.7573
568.1393, 589.5454
568.6214, 584.4132
569.1035, 581.4555
569.5856, 582.4987
570.0677, 582.7289
570.5499, 575.8315
571.0320, 565.9469
571.5141, 559.5787
571.9962, 561.2799
572.4783, 564.7791
572.9604, 568.7717
573.4426, 572.8251
573.9247, 575.0629
574.4068, 573.0055
574.8889, 571.0317
575.3710, 570.8610
575.8531, 572.8356
576.3353, 574.9800
576.8174, 577.8831
577.2995, 580.0517
577.7816, 579.7967
578.2637, 576.8959
578.7458, 573.4849
579.2280, 569.0803
579.7101, 565.7476
580.1922, 568.1500
580.6743, 575.4337
581.1564, 582.7744
581.6385, 589.1586
582.1207, 593.6990
582.6028, 594.1699
583.0849, 591.0317
583.5670, 587.9246
584.0491, 587.9499
584.5313, 588.2532
585.0134, 585.6168
585.4955, 577.2390
585.9776, 573.5876
586.4597, 582.2363
586.9418, 594.9606
587.4240, 602.4563
587.9061, 604.1855
588.3882, 600.9076
588.8703, 589.6485
589.3524, 574.2593
589.8345, 566.3109
590.3167, 566.9379
590.7988, 570.8535
591.2809, 577.7775
591.7630, 586.3586
592.2451, 587.6760
592.7272, 581.4238
593.2094, 575.3806
593.6915, 577.8579
594.1736, 584.7750
594.6557, 587.6911
595.1378, 584.1824
595.6199, 580.9827
596.1021, 584.8656
596.5842, 591.7791
597.0663, 595.9591
597.5485, 592.2155
598.0306, 588.8272
598.5127, 588.9785
598.9948, 591.8138
599.4769, 593.4733
599.9590, 592.6675
600.4412, 591.9296
600.9233, 591.8781
601.4054, 592.4719
601.8875, 594.9954
602.3696, 600.7592
602.8517, 605.1746
603.3339, 602.7896
603.8160, 594.2869
604.2981, 588.9328
604.7802, 588.0442
605.2623, 589.6309
605.7444, 592.1412
606.2266, 595.1708
606.7087, 597.5711
607.1908, 599.7158
607.6729, 600.3124
608.1550, 596.5153
608.6371, 590.0067
609.1193, 586.1235
609.6014, 587.0916
610.0835, 591.1772
610.5656, 599.8626
611.0477, 614.7736
611.5298, 621.2777
612.0120, 614.3815
612.4941, 603.5654
612.9762, 594.4356
613.4583, 586.5315
613.9404, 582.4572
614.4225, 583.3707
614.9047, 586.3538
615.3868, 587.4169
615.8689, 586.6719
616.3510, 585.3076
616.8331, 582.9989
617.3152, 581.1299
617.7974, 582.1030
618.2795, 585.4611
618.7616, 589.4438
619.2437, 595.4505
619.7258, 599.9371
620.2079, 598.5067
620.6901, 591.0663
621.1722, 586.7564
621.6543, 592.2385
622.1364, 599.4454
622.6185, 603.0322
623.1006, 601.0912
623.5828, 599.1105
624.0649, 596.8174
624.5470, 594.7350
625.0291, 593.0327
625.5112, 591.2332
625.9933, 593.0034
626.4755, 600.5394
626.9576, 609.8818
627.4397, 612.7499
627.9218, 609.6305
628.4039, 604.2415
628.8860, 593.7585
629.3682, 584.4888
629.8503, 588.8252
630.3324, 604.6623
630.8145, 616.0505
631.2966, 608.6060
631.7787, 596.8239
632.2609, 591.0069
632.7430, 593.7974
633.2251, 597.3635
633.7072, 599.9373
634.1893, 602.8643
634.6714, 607.6812
635.1536, 617.1004
635.6357, 622.0190
636.1178, 620.0652
636.5999, 615.0764
637.0820, 614.9373
637.5641, 619.9386
638.0463, 622.3987
638.5284, 618.7043
639.0105, 611.9416
639.4926, 607.0104
639.9747, 604.1060
640.4568, 604.3942
640.9390, 611.7021
641.4211, 620.4848
641.9032, 625.8878
642.3853, 627.5504
642.8674, 627.0854
643.3495, 623.4960
643.8317, 619.0898
644.3138, 615.3255
644.7959, 612.0018
645.2780, 610.2281
645.7601, 610.9722
646.2422, 612.4190
646.7244, 612.0410
647.2065, 609.1531
647.6886, 608.1276
648.1707, 610.1029
648.6528, 613.7952
649.1349, 617.4753
649.6171, 620.9095
650.0992, 622.5946
650.5813, 619.5258
651.0634, 615.7547
651.5455, 617.3969
652.0276, 623.3854
652.5098, 627.9082
652.9919, 627.8521
653.4740, 625.3839
653.9561, 621.3095
654.4382, 615.3313
654.9203, 610.0875
655.4025, 603.8114
655.8846, 600.0482
656.3667, 602.0744
656.8488, 613.1761
657.3309, 620.0008
657.8130, 621.3506
658.2952, 619.7687
658.7773, 619.2192
659.2594, 619.4053
659.7415, 616.0687
660.2236, 605.7322
660.7057, 595.3102
661.1879, 596.1913
661.6700, 605.3152
662.1521, 614.1772
662.6342, 621.0325
663.1163, 624.2513
663.5984, 619.6405
664.0806, 608.7027
664.5627, 603.2870
665.0448, 612.6844
665.5269, 622.4788
666.0090, 626.5541
666.4911, 624.2114
666.9733, 621.0529
667.4554, 617.0370
667.9375, 612.2875
668.4196, 605.2321
668.9017, 596.1225
669.3839, 594.4857
669.8660, 602.3807
670.3481, 612.0106
670.8302, 613.8916
671.3123, 610.6881
671.7944, 608.1041
672.2766, 608.0145
672.7587, 608.8509
673.2408, 608.6780
673.7229, 608.7943
674.2050, 611.7271
674.6871, 623.1683
675.1693, 632.0922
675.6514, 634.4395
676.1335, 631.5372
676.6156, 630.4600
677.0977, 632.9695
677.5798, 633.1609
678.0620, 626.4298
678.5441, 614.0947
679.0262, 611.1207
679.5083, 618.0253
679.9904, 625.4134
680.4725, 625.5965
680.9547, 621.2036
681.4368, 616.5101
681.9189, 611.9965
682.4010, 607.6257
682.8831, 600.8224
683.3652, 595.4427
683.8474, 595.8024
684.3295, 608.2628
684.8116, 617.9194
685.2937, 621.6896
685.7758, 621.9259
686.2579, 621.1973
686.7401, 619.0032
687.2222, 617.4001
687.7043, 617.3567
688.1864, 617.5538
688.6685, 613.3980
689.1506, 605.3097
689.6328, 600.1152
690.1149, 602.4615
690.5970, 608.4079
691.0791, 612.3547
691.5612, 614.6351
692.0433, 616.8370
692.5255, 622.2503
693.0076, 625.9807
693.4897, 623.2274
693.9718, 612.8142
694.4539, 606.9271
694.9360, 611.8223
695.4182, 617.3587
695.9003, 617.5008
696.3824, 609.8934
696.8645, 606.9624
697.3466, 609.1984
697.8287, 614.8257
698.3109, 624.7573
698.7930, 637.3157
699.2751, 643.4433
699.7572, 641.1654
700.2393, 633.4875
700.7214, 617.4182
701.2036, 599.3459
701.6857, 590.0759
702.1678, 602.2957
702.6499, 613.6440
703.1320, 613.8696
703.6141, 607.1422
704.0963, 604.0388
704.5784, 607.5750
705.0605, 611.0048
705.5426, 612.7654
706.0247, 613.3416
706.5068, 615.3458
706.9890, 619.1379
707.4711, 621.4120
707.9532, 618.0474
708.4353, 612.4318
708.9174, 615.0130
709.3995, 624.9493
709.8817, 633.9534
710.3638, 636.7772
710.8459, 635.7891
711.3280, 632.1859
711.8101, 625.7239
712.2922, 620.1260
712.7744, 612.4572
713.2565, 609.0645
713.7386, 615.2646
714.2207, 639.5028
714.7028, 650.6270
715.1849, 645.0720
715.6671, 632.7568
716.1492, 622.9028
716.6313, 615.6863
717.1134, 613.1032
717.5955, 616.6736
718.0776, 621.2559
718.5598, 618.8239
719.0419, 613.0316
719.5240, 611.0718
720.0061, 619.1358
720.4882, 627.1467
720.9703, 631.2264
721.4525, 631.8718
721.9346, 630.2082
722.4167, 623.5980
722.8988, 618.2441
723.3809, 614.9843
723.8630, 613.8639
724.3452, 615.6805
724.8273, 620.8604
725.3094, 625.8020
725.7915, 627.8806
726.2736, 628.8104
726.7557, 635.5178
727.2379, 646.7631
727.7200, 652.7898
728.2021, 640.0352
728.6842, 624.5435
729.1663, 621.1843
729.6484, 631.6064
730.1306, 639.0787
730.6127, 636.8377
731.0948, 631.9094
731.5769, 627.9924
732.0590, 625.0797
732.5411, 623.1677
733.0233, 622.4651
733.5054, 622.2948
733.9875, 621.0555
734.4696, 619.3345
734.9517, 623.4602
735.4338, 635.6068
735.9160, 644.8033
736.3981, 633.7954
736.8802, 614.5604
737.3623, 605.8052
737.8444, 619.6220
738.3266, 630.6632
738.8087, 623.4827
739.2908, 609.7451
739.7729, 607.2288
740.2551, 627.4274
740.7372, 638.4938
741.2193, 633.4722
741.7014, 620.2123
742.1835, 615.3604
742.6656, 619.0309
743.1478, 623.9110
743.6299, 629.3829
744.1120, 632.6543
744.5941, 625.2347
745.0762, 611.2922
745.5583, 603.5439
746.0405, 613.8382
746.5226, 626.9786
747.0047, 636.2675
747.4868, 641.5447
747.9689, 642.7551
748.4510, 636.4059
748.9332, 630.5560
749.4153, 627.8046
749.8974, 627.9022
750.3795, 627.8593
750.8616, 627.6937
751.3438, 627.2653
751.8259, 625.6923
752.3080, 623.9559
752.7901, 624.6780
753.2722, 627.8212
753.7543, 631.4684
754.2365, 636.4153
754.7186, 639.9113
755.2007, 639.6693
755.6828, 635.2038
756.1649, 628.2933
756.6470, 612.7290
757.1292, 600.4810
757.6113, 599.8901
758.0934, 614.3340
758.5755, 625.8784
759.0576, 635.0056
759.5397, 639.9120
760.0219, 636.6769
760.5040, 627.6240
760.9861, 619.5239
761.4682, 613.1108
761.9503, 609.8798
762.4324, 614.6200
762.9146, 621.6647
763.3967, 624.2061
763.8788, 617.5109
764.3609, 611.2540
764.8430, 605.3627
765.3251, 601.6653
765.8073, 602.9216
766.2894, 610.6345
766.7715, 617.7311
767.2536, 623.9084
767.7357, 627.7331
768.2178, 624.0458
768.7000, 615.1921
769.1821, 611.5226
769.6642, 619.5536
770.1463, 628.7256
770.6284, 629.0182
771.1105, 624.0122
771.5927, 620.6298
772.0748, 623.2244
772.5569, 625.0064
773.0390, 621.9582
773.5211, 617.4293
774.0032, 622.2421
774.4854, 641.1497
774.9675, 650.7529
775.4496, 640.4956
775.9317, 619.5803
776.4138, 611.2449
776.8959, 613.7067
777.3781, 616.8862
777.8602, 614.1612
778.3423, 611.0222
778.8244, 612.8868
779.3065, 618.5917
779.7886, 623.0117
780.2708, 620.9673
780.7529, 621.4144
781.2350, 629.5287
781.7171, 643.7849
782.1992, 649.4803
782.6813, 645.4236
783.1635, 637.2648
783.6456, 625.0754
784.1277, 611.4281
784.6098, 604.5717
785.0919, 604.2421
785.5740, 607.2985
786.0562, 615.2531
786.5383, 623.1705
787.0204, 626.5164
787.5025, 625.0667
787.9846, 623.0252
788.4667, 619.8002
788.9489, 617.8157
789.4310, 618.9156
789.9131, 623.4547
790.3952, 623.9195
790.8773, 619.7809
791.3594, 614.0184
791.8416, 606.3526
792.3237, 599.1224
792.8058, 600.0607
793.2879, 609.4132
793.7700, 619.0639
794.2521, 623.4872
794.7343, 625.7645
795.2164, 628.4835
795.6985, 632.4632
796.1806, 634.6271
796.6627, 633.7512
797.1448, 632.0978
797.6270, 631.0973
798.1091, 630.8754
798.5912, 630.3948
799.0733, 629.7018
799.5554, 628.4230
800.0375, 625.6249
800.5197, 622.1541
801.0018, 619.2504
801.4839, 616.9421
801.9660, 616.6367
802.4481, 619.6423
802.9302, 624.7433
803.4124, 631.7186
803.8945, 645.1998
804.3766, 648.9716
804.8587, 638.1121
805.3408, 624.0319
805.8229, 617.8946
806.3051, 619.6321
806.7872, 617.7639
807.2693, 610.6595
807.7514, 603.9191
808.2335, 602.0425
808.7156, 604.6823
809.1978, 612.6991
809.6799, 628.9898
810.1620, 641.4197
810.6441, 642.6691
811.1262, 638.8998
811.6083, 636.0087
812.0905, 634.0471
812.5726, 633.7127
813.0547, 636.1313
813.5368, 638.0417
814.0189, 633.9998
814.5010, 625.4141
814.9832, 621.2939
815.4653, 623.9578
815.9474, 627.0322
816.4295, 623.6338
816.9116, 617.6006
817.3937, 613.5059
817.8759, 611.8956
818.3580, 613.5076
818.8401, 622.6354
819.3222, 632.3216
819.8043, 635.5139
820.2864, 630.4874
820.7686, 626.8670
821.2507, 625.6149
821.7328, 625.6440
822.2149, 625.5118
822.6970, 625.5699
823.1791, 627.5614
823.6613, 633.3801
824.1434, 636.0372
824.6255, 625.5976
825.1076, 611.8349
825.5897, 605.7856
826.0718, 620.2004
826.5540, 626.4318
827.0361, 620.9277
827.5182, 611.3173
828.0003, 606.2286
828.4824, 605.6643
828.9645, 606.9832
829.4467, 610.2079
829.9288, 613.5574
830.4109, 613.8218
830.8930, 613.2361
831.3751, 615.7935
831.8572, 624.8917
832.3394, 631.6916
832.8215, 631.1096
833.3036, 627.7698
833.7857, 627.3719
834.2678, 632.5671
834.7499, 631.8745
835.2321, 622.1475
835.7142, 612.1490
836.1963, 615.6214
836.6784, 628.5128
837.1605, 635.5541
837.6426, 633.0833
838.1248, 627.7350
838.6069, 621.1296
839.0890, 616.1316
839.5711, 616.4614
840.0532, 628.5345
840.5353, 635.2887
841.0175, 632.7226
841.4996, 627.7092
841.9817, 628.1835
842.4638, 634.5300
842.9459, 635.9630
843.4280, 630.7787
843.9102, 624.2209
844.3923, 619.7647
844.8744, 618.5444
845.3565, 624.3603
845.8386, 641.4883
846.3207, 652.3018
846.8029, 641.6860
847.2850, 626.7540
847.7671, 623.3914
848.2492, 639.4805
848.7313, 644.8822
849.2134, 635.9514
849.6956, 625.5305
850.1777, 629.7352
850.6598, 643.3429
851.1419, 646.6898
851.6240, 636.5807
852.1061, 625.1970
852.5883, 619.3859
853.0704, 618.0397
853.5525, 620.4634
854.0346, 627.5751
854.5167, 635.8188
854.9988, 648.7711
855.4810, 657.9067
855.9631, 654.9131
856.4452, 639.4982
856.9273, 631.2615
857.4094, 631.0928
857.8915, 632.4600
858.3737, 629.1317
858.8558, 624.2374
859.3379, 621.6437
859.8200, 621.8880
860.3021, 623.5159
860.7842, 627.9404
861.2664, 631.8811
861.7485, 633.5952
862.2306, 633.0084
862.7127, 630.4030
863.1948, 625.0381
863.6769, 620.8260
864.1591, 622.2964
864.6412, 626.5571
865.1233, 625.1913
865.6054, 618.5582
866.0875, 614.8316
866.5696, 623.0800
867.0518, 632.2661
867.5339, 633.3654
868.0160, 625.3635
868.4981, 627.0684
868.9802, 645.3647
869.4623, 658.7892
869.9445, 654.3878
870.4266, 636.9614
870.9087, 628.9281
871.3908, 629.5332
871.8729, 631.6976
872.3550, 631.9522
872.8372, 631.2058
873.3193, 629.8279
873.8014, 627.9957
874.2835, 626.5698
874.7656, 622.7161
875.2477, 623.3099
875.7299, 632.0973
876.2120, 646.2261
876.6941, 655.5623
877.1762, 660.0972
877.6583, 659.7108
878.1404, 651.3674
878.6226, 641.1398
879.1047, 636.9694
879.5869, 637.4309
880.0690, 638.7399
880.5511, 639.0510
881.0332, 640.5690
881.5153, 646.3481
881.9974, 652.9828
882.4796, 651.7186
882.9617, 639.9471
883.4438, 636.3464
883.9259, 648.4676
884.4080, 664.3135
884.8901, 662.9570
885.3723, 650.5049
885.8544, 641.1598
886.3365, 640.6743
886.8186, 642.9389
887.3007, 647.0768
887.7828, 651.6873
888.2650, 654.8886
888.7471, 656.5820
889.2292, 656.5687
889.7113, 653.8878
890.1934, 651.6356
890.6755, 656.3696
891.1577, 664.8986
891.6398, 666.3496
892.1219, 657.4570
892.6040, 647.7997
893.0861, 641.4883
893.5682, 639.1281
894.0504, 642.4987
894.5325, 657.5154
895.0146, 662.4114
895.4967, 652.0937
895.9788, 641.0652
896.4609, 644.3609
896.9431, 658.7940
897.4252, 663.5960
897.9073, 657.5803
898.3894, 649.6027
898.8715, 642.6608
899.3536, 639.2413
899.8358, 643.1632
900.3179, 655.5132
900.8000, 664.3082
901.2821, 669.0484
901.7642, 668.9542
902.2463, 661.1095
902.7285, 647.5129
903.2106, 644.1725
903.6927, 650.7126
904.1748, 656.6176
904.6569, 652.8145
905.1390, 647.2492
905.6212, 649.8619
906.1033, 658.3561
906.5854, 662.2968
907.0675, 652.1837
907.5496, 645.1422
908.0317, 646.0449
908.5139, 652.4265
908.9960, 657.8317
909.4781, 662.2349
909.9602, 663.5706
910.4423, 661.0630
910.9244, 655.2260
911.4066, 641.1152
911.8887, 625.1780
912.3708, 619.1619
912.8529, 641.0480
913.3350, 655.2294
913.8171, 650.9330
914.2993, 639.2245
914.7814, 634.5961
915.2635, 637.5859
915.7456, 640.5535
916.2277, 642.3815
916.7098, 644.1741
917.1920, 646.0427
917.6741, 649.1225
918.1562, 656.5925
918.6383, 672.0096
919.1204, 680.8342
919.6025, 671.6003
920.0847, 659.9625
920.5668, 657.2499
921.0489, 665.5820
921.5310, 665.8939
922.0131, 656.9697
922.4952, 650.1102
922.9774, 659.2452
923.4595, 673.9406
923.9416, 677.1498
924.4237, 668.6826
924.9058, 661.8754
925.3879, 662.4578
925.8701, 665.5999
926.3522, 670.8239
926.8343, 677.2279
927.3164, 675.6498
927.7985, 664.8242
928.2806, 657.8755
928.7628, 664.2851
929.2449, 674.8152
929.7270, 674.2859
930.2091, 665.8846
930.6912, 658.2285
931.1733, 653.4880
931.6555, 651.6942
932.1376, 655.1260
932.6197, 660.5757
933.1018, 662.1080
933.5839, 658.8509
934.0660, 658.6971
934.5482, 663.7306
935.0303, 670.2402
935.5124, 674.6702
935.9945, 676.9120
936.4766, 676.6085
936.9587, 673.0934
937.4409, 668.7411
937.9230, 663.1906
938.4051, 657.9052
938.8872, 653.5765
939.3693, 649.7076
939.8514, 649.7056
940.3336, 653.7211
940.8157, 660.4888
941.2978, 673.3690
941.7799, 686.1929
942.2620, 688.3910
942.7441, 679.9636
943.2263, 672.0028
943.7084, 669.3297
944.1905, 667.5318
944.6726, 664.2536
945.1547, 660.1792
945.6368, 660.5145
946.1190, 665.5990
946.6011, 669.2957
947.0832, 667.8169
947.5653, 664.6302
948.0474, 663.9234
948.5295, 665.1887
949.0117, 667.2445
949.4938, 673.3781
949.9759, 675.3088
950.4580, 669.8499
950.9401, 660.8782
951.4222, 653.4389
951.9044, 647.4609
952.3865, 644.6821
952.8686, 645.3185
953.3507, 649.5002
953.8328, 662.7657
954.3149, 677.0942
954.7971, 681.0184
955.2792, 668.6767
955.7613, 659.8610
956.2434, 658.6812
956.7255, 660.4754
957.2076, 663.6422
957.6898, 668.0469
958.1719, 667.3163
958.6540, 661.5466
959.1361, 657.6238
959.6182, 662.1598
960.1003, 669.2056
960.5825, 674.6584
961.0646, 678.0627
961.5467, 677.8656
962.0288, 669.9170
962.5109, 664.2901
962.9930, 663.6175
963.4752, 666.5527
963.9573, 671.4562
964.4394, 677.5699
964.9215, 680.1815
965.4036, 676.4444
965.8857, 671.3156
966.3679, 666.2159
966.8500, 663.1970
967.3321, 665.2322
967.8142, 677.4062
968.2963, 686.2888
968.7784, 692.1321
969.2606, 693.9163
969.7427, 688.0275
970.2248, 677.0771
970.7069, 669.7137
971.1890, 666.6295
971.6711, 668.4176
972.1533, 682.3215
972.6354, 695.5533
973.1175, 698.6177
973.5996, 691.3735
974.0817, 683.3012
974.5638, 673.4911
975.0460, 666.0364
975.5281, 662.3458
976.0102, 662.2819
976.4923, 667.9907
976.9744, 677.1964
977.4565, 683.2157
977.9387, 679.5789
978.4208, 676.4198
978.9029, 679.5946
979.3850, 684.1161
979.8671, 682.6858
980.3492, 674.0297
980.8314, 666.7604
981.3135, 661.7783
981.7956, 658.3673
982.2777, 654.1832
982.7598, 651.6848
983.2419, 656.2106
983.7241, 669.8526
984.2062, 679.0690
984.6883, 674.8738
985.1704, 670.3696
985.6525, 672.1001
986.1346, 679.1483
986.6168, 681.2117
987.0989, 678.4379
987.5810, 675.4561
988.0631, 675.5536
988.5452, 676.1282
989.0273, 673.4093
989.5095, 669.2571
989.9916, 668.6293
990.4737, 677.2080
990.9558, 681.7167
991.4379, 679.5244
991.9200, 674.1532
992.4022, 668.9996
992.8843, 665.1196
993.3664, 668.7351
993.8485, 682.5248
994.3306, 693.8306
994.8127, 689.3501
995.2949, 681.6326
995.7770, 683.2720
996.2591, 697.1711
996.7412, 702.2075
997.2233, 696.5781
997.7054, 688.4969
998.1876, 680.7668
998.6697, 674.9626
999.1518, 676.3528
999.6339, 683.1449
1000.116, 688.1625
1000.598, 671.9503
1001.080, 684.2451
1001.562, 691.1750
1002.044, 693.0286
1002.527, 674.6010
1003.009, 682.3622
1003.491, 679.6281
1003.973, 676.4636
1004.455, 687.9108
1004.937, 672.4330
1005.419, 683.6485
1005.901, 684.2085
1006.384, 689.6453
1006.866, 690.0715
1007.348, 691.8936
1007.830, 691.1766
1008.312, 684.7186
1008.794, 674.5681
1009.276, 674.3199
1009.758, 682.9254
1010.240, 691.5411
1010.723, 696.0201
1011.205, 697.8798
1011.687, 696.4663
1012.169, 693.2773
1012.651, 692.5336
1013.133, 695.8986
1013.615, 696.6472
1014.097, 692.9761
1014.580, 688.5247
1015.062, 688.4292
1015.544, 691.2022
1016.026, 694.8055
1016.508, 699.4816
1016.990, 701.0649
1017.472, 693.6605
1017.954, 686.6635
1018.436, 686.2693
1018.919, 692.0224
1019.401, 693.0958
1019.883, 689.4757
1020.365, 686.2168
1020.847, 685.5654
1021.329, 687.2193
1021.811, 693.3926
1022.293, 701.4604
1022.776, 704.9354
1023.258, 698.0745
1023.740, 694.0517
1024.222, 694.5002
1024.704, 697.6139
1025.186, 702.8941
1025.668, 708.8048
1026.150, 708.8981
1026.632, 701.8585
1027.115, 695.1284
1027.597, 692.6465
1028.079, 692.5170
1028.561, 692.8585
1029.043, 693.7078
1029.525, 701.8839
1030.007, 718.9620
1030.489, 728.9438
1030.972, 720.4003
1031.454, 705.2391
1031.936, 700.2622
1032.418, 701.4009
1032.900, 700.0068
1033.382, 687.9046
1033.864, 681.1008
1034.346, 682.9567
1034.828, 688.0215
1035.311, 690.0165
1035.793, 689.5981
1036.275, 691.1940
1036.757, 695.1826
1037.239, 699.5384
1037.721, 704.3536
1038.203, 707.7230
1038.685, 707.2534
1039.167, 703.4700
1039.650, 701.1761
1040.132, 699.7488
1040.614, 703.3828
1041.096, 715.9622
1041.578, 729.9622
1042.060, 734.0947
1042.542, 730.4436
1043.024, 722.1682
1043.507, 704.8294
1043.989, 693.9826
1044.471, 695.0872
1044.953, 700.0737
1045.435, 703.5396
1045.917, 705.4802
1046.399, 705.7923
1046.881, 704.4885
1047.364, 702.0287
1047.846, 698.3359
1048.328, 693.9518
1048.810, 687.3940
1049.292, 680.3251
1049.774, 679.4586
1050.256, 687.0474
1050.738, 693.0563
1051.220, 695.5098
1051.703, 695.5667
1052.185, 693.6662
1052.667, 690.8964
1053.149, 688.7770
1053.631, 687.2477
1054.113, 688.2209
1054.595, 696.0967
1055.077, 702.0792
1055.559, 700.9561
1056.042, 693.8818
1056.524, 686.8640
1057.006, 680.4807
1057.488, 679.4547
1057.970, 691.5811
1058.452, 704.4868
1058.934, 712.6716
1059.416, 715.5563
1059.899, 712.1813
1060.381, 700.9722
1060.863, 687.7793
1061.345, 671.0240
1061.827, 661.0188
1062.309, 675.5600
1062.791, 700.0227
1063.273, 712.6109
1063.755, 711.6469
1064.238, 707.4887
1064.720, 696.7394
1065.202, 691.7307
1065.684, 698.3043
1066.166, 711.5278
1066.648, 717.9152
1067.130, 718.3527
1067.612, 717.8523
1068.094, 719.5470
1068.577, 716.8502
1069.059, 697.5331
1069.541, 677.5787
1070.023, 673.3208
1070.505, 688.4024
1070.987, 698.9214
1071.469, 704.8964
1071.951, 707.5231
1072.434, 704.3972
1072.916, 700.8035
1073.398, 704.3747
1073.880, 713.0448
1074.362, 719.3049
1074.844, 722.0292
1075.326, 721.1068
1075.808, 714.8083
1076.291, 707.8547
1076.773, 708.5289
1077.255, 713.7751
1077.737, 714.0836
1078.219, 707.8401
1078.701, 702.5032
1079.183, 702.6796
1079.665, 704.0093
1080.147, 704.1590
1080.630, 703.4560
1081.112, 704.4815
1081.594, 707.1193
1082.076, 707.0759
1082.558, 699.3737
1083.040, 694.8564
1083.522, 708.8632
1084.004, 729.4334
1084.486, 740.2299
1084.969, 737.6556
1085.451, 730.4338
1085.933, 716.9236
1086.415, 705.1802
1086.897, 702.6297
1087.379, 705.3578
1087.861, 707.6998
1088.343, 709.3176
1088.826, 709.5295
1089.308, 704.4893
1089.790, 703.2411
1090.272, 709.1220
1090.754, 717.2780
1091.236, 719.5092
1091.718, 717.1726
1092.200, 716.3504
1092.682, 717.9493
1093.165, 720.9320
1093.647, 731.1596
1094.129, 736.3487
1094.611, 725.4581
1095.093, 701.7840
1095.575, 688.0714
1096.057, 684.5806
1096.539, 684.7186
1097.022, 686.3425
1097.504, 690.0429
1097.986, 698.3547
1098.468, 708.3289
1098.950, 716.2172
1099.432, 723.3855
1099.914, 721.5190
1100.396, 707.2280
1100.879, 695.0048
1101.361, 698.7432
1101.843, 710.2180
1102.325, 713.6769
1102.807, 710.5715
1103.289, 706.9083
1103.771, 703.5527
1104.253, 701.6609
1104.735, 701.0103
1105.218, 702.2006
1105.700, 707.3764
1106.182, 715.3784
1106.664, 720.3209
1107.146, 721.5842
1107.628, 721.5157
1108.110, 718.4615
1108.592, 717.7390
1109.074, 725.3658
1109.557, 737.6534
1110.039, 737.4684
1110.521, 724.5988
1111.003, 716.1310
1111.485, 718.1019
1111.967, 722.9866
1112.449, 726.7160
1112.931, 727.6990
1113.414, 722.7807
1113.896, 709.5173
1114.378, 702.6099
1114.860, 702.7174
1115.342, 706.5037
1115.824, 715.4918
1116.306, 724.1437
1116.788, 719.7753
1117.271, 708.6079
1117.753, 704.4896
1118.235, 720.0560
1118.717, 730.6344
1119.199, 733.9249
1119.681, 733.4988
1120.163, 731.8242
1120.645, 729.4312
1121.127, 727.3438
1121.609, 725.7960
1122.092, 726.3444
1122.574, 732.4558
1123.056, 737.4584
1123.538, 738.3261
1124.020, 737.4742
1124.502, 740.7872
1124.984, 747.4285
1125.466, 749.6067
1125.949, 745.4105
1126.431, 740.9600
1126.913, 744.1383
1127.395, 745.4724
1127.877, 734.6942
1128.359, 714.3477
1128.841, 706.1152
1129.323, 710.5688
1129.806, 717.3704
1130.288, 724.2659
1130.770, 728.7285
1131.252, 725.3526
1131.734, 719.3107
1132.216, 718.1341
1132.698, 725.4647
1133.180, 726.4882
1133.662, 719.8200
1134.145, 712.6009
1134.627, 705.3373
1135.109, 702.9688
1135.591, 720.5110
1136.073, 748.9985
1136.555, 765.2620
1137.037, 751.8796
1137.519, 741.6365
1138.001, 736.5658
1138.484, 734.8112
1138.966, 736.0132
1139.448, 738.6973
1139.930, 739.0114
1140.412, 736.9886
1140.894, 734.9829
1141.376, 732.4329
1141.858, 732.2699
1142.341, 736.5005
1142.823, 742.0351
1143.305, 743.7577
1143.787, 741.8552
1144.269, 735.6719
1144.751, 724.3700
1145.233, 717.1341
1145.715, 721.1478
1146.198, 729.0436
1146.680, 738.0569
1147.162, 747.1597
1147.644, 749.6453
1148.126, 746.2039
1148.608, 746.6399
1149.090, 756.2371
1149.572, 764.7484
1150.054, 762.9726
1150.536, 757.4318
1151.019, 754.3088
1151.501, 753.9691
1151.983, 754.1275
1152.465, 754.9351
1152.947, 752.5405
1153.429, 740.0959
1153.911, 728.8951
1154.393, 734.6511
1154.876, 747.6813
1155.358, 749.7580
1155.840, 732.9757
1156.322, 727.3395
1156.804, 735.0090
1157.286, 744.9476
1157.768, 748.7566
1158.250, 749.3787
1158.733, 749.1594
1159.215, 748.8497
1159.697, 751.1736
1160.179, 760.0140
1160.661, 763.5300
1161.143, 759.5479
1161.625, 752.2276
1162.107, 743.5482
1162.589, 736.0620
1163.072, 734.8753
1163.554, 740.0248
1164.036, 746.2145
1164.518, 755.4562
1165.000, 759.3757
1165.482, 753.7501
1165.964, 745.3426
1166.446, 748.4717
1166.928, 757.9005
1167.411, 762.0634
1167.893, 758.5127
1168.375, 751.7179
1168.857, 735.1484
1169.339, 726.2274
1169.821, 734.9840
1170.303, 753.7574
1170.785, 760.9440
1171.268, 758.9241
1171.750, 755.1133
1172.232, 749.9658
1172.714, 748.2390
1173.196, 756.4467
1173.678, 764.1745
1174.160, 763.6814
1174.642, 756.9692
1175.125, 758.6722
1175.607, 767.1557
1176.089, 773.3710
1176.571, 772.9946
1177.053, 769.5402
1177.535, 760.3600
1178.017, 752.0051
1178.499, 753.3416
1178.981, 764.1190
1179.464, 757.3820
1179.946, 734.3182
1180.428, 718.4659
1180.910, 733.1051
1181.392, 749.6309
1181.874, 750.4064
1182.356, 744.6609
1182.838, 747.4173
1183.320, 759.1010
1183.803, 767.4966
1184.285, 771.6619
1184.767, 772.3610
1185.249, 767.7520
1185.731, 762.2552
1186.213, 759.1060
1186.695, 757.4937
1187.177, 754.2535
1187.660, 749.0403
1188.142, 748.6210
1188.624, 754.8286
1189.106, 759.9690
1189.588, 754.3533
1190.070, 747.2438
1190.552, 746.8576
1191.034, 752.4843
1191.516, 757.3575
1191.999, 761.9207
1192.481, 759.5795
1192.963, 745.8126
1193.445, 735.5425
1193.927, 752.5767
1194.409, 774.6117
1194.891, 775.1437
1195.373, 752.0289
1195.855, 745.1462
1196.338, 756.2292
1196.820, 768.7159
1197.302, 778.0003
1197.784, 782.0498
1198.266, 775.7333
1198.748, 764.3181
1199.230, 752.4749
1199.712, 738.7453
1200.195, 740.9266
1200.677, 761.5649
1201.159, 780.3496
1201.641, 786.0981
1202.123, 784.8020
1202.605, 779.0518
1203.087, 772.4296
1203.569, 771.4357
1204.052, 780.5094
1204.534, 783.1798
1205.016, 778.8575
1205.498, 771.7750
1205.980, 760.5311
1206.462, 751.5393
1206.944, 753.7612
1207.426, 763.6735
1207.908, 774.0641
1208.391, 788.5370
1208.873, 789.2969
1209.355, 773.1733
1209.837, 756.4259
1210.319, 753.1013
1210.801, 756.5630
1211.283, 760.1304
1211.765, 764.0995
1212.247, 770.9742
1212.730, 783.3823
1213.212, 790.3698
1213.694, 790.2876
1214.176, 787.0106
1214.658, 782.2357
1215.140, 777.8224
1215.622, 776.7902
1216.104, 778.4103
1216.587, 777.3391
1217.069, 771.4315
1217.551, 769.6246
1218.033, 774.0265
1218.515, 779.9725
1218.997, 781.8316
1219.479, 782.6642
1219.961, 786.9935
1220.443, 794.5685
1220.926, 797.4730
1221.408, 793.8712
1221.890, 792.1049
1222.372, 794.6140
1222.854, 797.7995
1223.336, 796.2754
1223.818, 793.6974
1224.300, 796.2302
1224.782, 804.5965
1225.265, 801.7361
1225.747, 784.1878
1226.229, 772.2911
1226.711, 773.4416
1227.193, 779.5120
1227.675, 782.7267
1228.157, 784.0198
1228.639, 783.0378
1229.122, 779.1929
1229.604, 784.9016
1230.086, 802.6667
1230.568, 813.0170
1231.050, 806.1060
1231.532, 793.5446
1232.014, 783.9761
1232.496, 779.2390
1232.979, 784.0983
1233.461, 800.7081
1233.943, 804.2841
1234.425, 793.1315
1234.907, 786.1278
1235.389, 795.9962
1235.871, 807.5727
1236.353, 805.3213
1236.835, 796.0498
1237.318, 787.4515
1237.800, 778.9351
1238.282, 780.5341
1238.764, 792.7959
1239.246, 803.6317
1239.728, 805.1644
1240.210, 803.8146
1240.692, 803.3409
1241.175, 804.0666
1241.657, 806.7401
1242.139, 812.0197
1242.621, 814.6439
1243.103, 814.6195
1243.585, 813.6580
1244.067, 811.6945
1244.549, 810.3745
1245.031, 811.5959
1245.514, 813.7108
1245.996, 815.2261
1246.478, 816.5496
1246.960, 809.1842
1247.442, 793.6505
1247.924, 783.5275
1248.406, 794.4568
1248.888, 805.7524
1249.370, 801.9573
1249.853, 794.1816
1250.335, 799.0301
1250.817, 815.7859
1251.299, 822.8157
1251.781, 819.6528
1252.263, 814.3571
1252.745, 809.2147
1253.227, 806.3070
1253.710, 809.7918
1254.192, 813.3889
1254.674, 806.0262
1255.156, 790.4099
1255.638, 787.6132
1256.120, 797.9274
1256.602, 809.0978
1257.084, 819.1735
1257.567, 822.0977
1258.049, 812.4393
1258.531, 799.9719
1259.013, 799.9709
1259.495, 808.6664
1259.977, 812.8682
1260.459, 800.1608
1260.941, 813.3569
1261.423, 821.1878
1261.906, 823.9445
1262.388, 806.4177
1262.870, 815.0802
1263.352, 813.2474
1263.834, 810.9839
1264.316, 823.3323
1264.798, 808.7554
1265.280, 820.8722
1265.762, 822.3332
1266.245, 828.6731
1266.727, 824.4509
1267.209, 823.4902
1267.691, 833.0933
1268.173, 836.8469
1268.655, 831.4091
1269.137, 831.4651
1269.619, 832.4150
1270.102, 829.5164
1270.584, 828.1453
1271.066, 829.7373
1271.548, 832.1099
1272.030, 834.3501
1272.512, 834.5699
1272.994, 828.3020
1273.476, 816.2108
1273.958, 810.4955
1274.441, 811.8201
1274.923, 818.8254
1275.405, 832.6790
1275.887, 845.3016
1276.369, 846.3011
1276.851, 843.5536
1277.333, 844.6843
1277.815, 849.1934
1278.297, 851.6697
1278.780, 852.1177
1279.262, 849.0582
1279.744, 841.2346
1280.226, 835.6948
1280.708, 842.9813
1281.190, 850.0878
1281.672, 844.9801
1282.154, 832.4340
1282.637, 830.8022
1283.119, 838.9092
1283.601, 846.3030
1284.083, 851.2678
1284.565, 852.0253
1285.047, 845.2987
1285.529, 836.0834
1286.011, 825.5007
1286.494, 815.4811
1286.976, 812.4946
1287.458, 815.0366
1287.940, 818.2792
1288.422, 821.2221
1288.904, 824.9808
1289.386, 830.5290
1289.868, 836.4884
1290.350, 843.2087
1290.833, 848.8781
1291.315, 846.9026
1291.797, 842.0468
1292.279, 845.5939
1292.761, 861.3454
1293.243, 868.6979
1293.725, 863.0554
1294.207, 855.8846
1294.689, 850.5525
1295.172, 846.2839
1295.654, 840.6267
1296.136, 836.0710
1296.618, 837.0675
1297.100, 844.9269
1297.582, 848.6852
1298.064, 848.1023
1298.546, 844.4011
1299.029, 836.4957
1299.511, 830.3487
1299.993, 834.6033
1300.475, 841.9593
1300.957, 845.1458
1301.439, 844.5806
1301.921, 844.2825
1302.403, 844.2838
1302.885, 845.5128
1303.368, 848.3984
1303.850, 851.8183
1304.332, 859.3795
1304.814, 862.0729
1305.296, 852.1946
1305.778, 835.0068
1306.260, 827.5737
##END=



