##NAMES=Carpathite
##RRUFFID=R060660
##IDEAL CHEMISTRY=C_24_H_12_
##LOCALITY=Prospect 500 meters north of Picachos mine, south of New Idria, San Benito County, California, USA
##OWNER=RRUFF
##SOURCE=Michael Scott
##DESCRIPTION=Aggregate of light tan colored platy crystals
##STATUS=The identification of this mineral has been confirmed by single-crystal X-ray diffraction.
##URL=rruff.info/R060660
103.208, 183.806
103.690, 188.633
104.172, 193.183
104.654, 198.200
105.136, 201.464
105.618, 198.261
106.100, 190.116
106.582, 186.055
107.064, 191.026
107.547, 203.617
108.029, 218.755
108.511, 235.417
108.993, 255.284
109.475, 276.386
109.957, 299.207
110.439, 330.066
110.921, 376.981
111.404, 439.898
111.886, 501.439
112.368, 553.245
112.850, 606.507
113.332, 664.578
113.814, 728.373
114.296, 804.259
114.778, 906.749
115.260, 1047.953
115.743, 1167.602
116.225, 1274.006
116.707, 1346.237
117.189, 1361.870
117.671, 1315.011
118.153, 1227.117
118.635, 1128.990
119.117, 1005.399
119.600, 905.240
120.082, 827.949
120.564, 775.552
121.046, 751.871
121.528, 758.640
122.010, 790.619
122.492, 833.408
122.974, 873.686
123.456, 946.979
123.939, 1059.355
124.421, 1202.969
124.903, 1370.491
125.385, 1556.697
125.867, 1762.938
126.349, 1991.828
126.831, 2264.183
127.313, 2540.092
127.796, 2820.792
128.278, 3100.257
128.760, 3372.441
129.242, 3631.352
129.724, 3879.172
130.206, 4128.274
130.688, 4413.486
131.170, 4666.771
131.652, 4898.858
132.135, 5087.019
132.617, 5177.911
133.099, 5127.082
133.581, 4931.783
134.063, 4717.264
134.545, 4470.953
135.027, 4220.720
135.509, 3966.567
135.992, 3716.231
136.474, 3492.675
136.956, 3316.029
137.438, 3191.804
137.920, 3091.712
138.402, 3004.686
138.884, 2947.316
139.366, 2933.345
139.848, 2962.497
140.331, 3021.621
140.813, 3101.021
141.295, 3203.945
141.777, 3323.359
142.259, 3454.883
142.741, 3605.098
143.223, 3783.738
143.705, 3992.056
144.188, 4212.722
144.670, 4434.183
145.152, 4655.901
145.634, 4871.267
146.116, 5082.441
146.598, 5285.426
147.080, 5478.941
147.562, 5665.532
148.044, 5832.237
148.527, 5964.666
149.009, 6067.072
149.491, 6137.395
149.973, 6169.722
150.455, 6171.686
150.937, 6153.879
151.419, 6115.700
151.901, 6063.689
152.383, 6004.903
152.866, 5939.809
153.348, 5860.273
153.830, 5752.537
154.312, 5628.978
154.794, 5516.335
155.276, 5418.772
155.758, 5334.038
156.240, 5264.396
156.723, 5207.754
157.205, 5148.619
157.687, 5071.098
158.169, 4983.641
158.651, 4914.260
159.133, 4866.215
159.615, 4841.339
160.097, 4842.954
160.579, 4868.361
161.062, 4897.073
161.544, 4916.073
162.026, 4927.119
162.508, 4940.999
162.990, 4958.870
163.472, 4980.629
163.954, 5005.967
164.436, 5034.570
164.919, 5064.964
165.401, 5097.699
165.883, 5132.309
166.365, 5163.083
166.847, 5190.549
167.329, 5211.645
167.811, 5222.798
168.293, 5224.841
168.775, 5225.177
169.258, 5231.107
169.740, 5242.534
170.222, 5248.996
170.704, 5250.285
171.186, 5244.733
171.668, 5227.437
172.150, 5200.046
172.632, 5174.925
173.115, 5166.237
173.597, 5175.113
174.079, 5176.435
174.561, 5161.975
175.043, 5143.625
175.525, 5122.892
176.007, 5101.803
176.489, 5089.619
176.971, 5095.671
177.454, 5120.915
177.936, 5154.189
178.418, 5206.579
178.900, 5257.414
179.382, 5294.387
179.864, 5318.169
180.346, 5340.128
180.828, 5378.065
181.311, 5437.202
181.793, 5469.729
182.275, 5462.671
182.757, 5432.414
183.239, 5380.215
183.721, 5308.147
184.203, 5223.723
184.685, 5128.823
185.167, 5020.149
185.650, 4924.023
186.132, 4847.883
186.614, 4781.014
187.096, 4718.829
187.578, 4661.235
188.060, 4611.472
188.542, 4575.660
189.024, 4557.709
189.507, 4531.446
189.989, 4479.083
190.471, 4432.174
190.953, 4410.161
191.435, 4409.842
191.917, 4410.040
192.399, 4384.645
192.881, 4326.318
193.363, 4289.778
193.846, 4298.618
194.328, 4310.913
194.810, 4309.906
195.292, 4296.237
195.774, 4280.322
196.256, 4271.946
196.738, 4272.058
197.220, 4272.168
197.702, 4273.989
198.185, 4274.348
198.667, 4270.949
199.149, 4264.625
199.631, 4258.506
200.113, 4256.254
200.595, 4258.574
201.077, 4256.501
201.559, 4245.417
202.042, 4233.505
202.524, 4221.671
203.006, 4210.997
203.488, 4203.550
203.970, 4201.566
204.452, 4205.173
204.934, 4208.940
205.416, 4217.845
205.898, 4221.779
206.380, 4217.114
206.863, 4204.657
207.345, 4186.643
207.827, 4163.262
208.309, 4134.756
208.791, 4110.629
209.273, 4091.452
209.755, 4076.708
210.238, 4070.938
210.720, 4069.520
211.202, 4062.385
211.684, 4038.628
212.166, 4001.980
212.648, 3990.253
213.130, 4034.601
213.612, 4068.585
214.094, 4066.244
214.577, 4041.714
215.059, 4018.493
215.541, 4010.567
216.023, 4016.299
216.505, 4027.958
216.987, 4052.631
217.469, 4073.713
217.951, 4085.707
218.434, 4092.075
218.916, 4096.583
219.398, 4099.818
219.880, 4104.766
220.362, 4122.801
220.844, 4164.100
221.326, 4202.960
221.808, 4227.904
222.290, 4248.867
222.773, 4276.698
223.255, 4316.289
223.737, 4366.482
224.219, 4425.369
224.701, 4498.149
225.183, 4569.952
225.665, 4629.240
226.147, 4689.740
226.629, 4763.687
227.112, 4855.186
227.594, 4963.633
228.076, 5089.718
228.558, 5235.117
229.040, 5393.340
229.522, 5553.171
230.004, 5729.002
230.486, 5931.981
230.969, 6165.380
231.451, 6425.362
231.933, 6707.110
232.415, 7007.731
232.897, 7340.496
233.379, 7708.390
233.861, 8108.026
234.343, 8551.071
234.825, 9038.061
235.307, 9537.559
235.790, 10064.980
236.272, 10644.250
236.754, 11039.390
237.236, 11236.320
237.718, 11199.910
238.200, 10849.950
238.682, 10202.520
239.165, 9439.161
239.647, 8665.324
240.129, 7881.281
240.611, 7211.471
241.093, 6680.392
241.575, 6265.014
242.057, 5958.918
242.539, 5749.810
243.021, 5590.834
243.503, 5459.114
243.986, 5353.294
244.468, 5268.038
244.950, 5211.188
245.432, 5163.819
245.914, 5116.431
246.396, 5068.593
246.878, 5018.225
247.361, 4960.649
247.843, 4900.059
248.325, 4846.853
248.807, 4801.214
249.289, 4762.922
249.771, 4738.159
250.253, 4719.876
250.735, 4694.321
251.217, 4652.468
251.699, 4603.379
252.182, 4557.246
252.664, 4512.800
253.146, 4479.431
253.628, 4472.755
254.110, 4478.591
254.592, 4473.916
255.074, 4449.195
255.556, 4418.975
256.039, 4397.816
256.521, 4385.515
257.003, 4373.127
257.485, 4356.510
257.967, 4337.388
258.449, 4318.539
258.931, 4298.368
259.413, 4281.927
259.896, 4277.453
260.378, 4281.103
260.860, 4275.411
261.342, 4251.631
261.824, 4218.571
262.306, 4189.914
262.788, 4164.935
263.270, 4145.830
263.752, 4138.325
264.234, 4136.648
264.717, 4127.741
265.199, 4106.678
265.681, 4082.788
266.163, 4070.228
266.645, 4070.095
267.127, 4068.717
267.609, 4062.096
268.091, 4053.582
268.574, 4048.855
269.056, 4048.847
269.538, 4045.687
270.020, 4029.829
270.502, 3998.218
270.984, 3973.901
271.466, 3957.970
271.948, 3948.603
272.431, 3947.458
272.913, 3953.095
273.395, 3958.536
273.877, 3958.445
274.359, 3952.780
274.841, 3946.448
275.323, 3940.781
275.805, 3933.209
276.287, 3918.708
276.770, 3901.280
277.252, 3890.006
277.734, 3890.225
278.216, 3900.372
278.698, 3912.974
279.180, 3934.837
279.662, 3950.928
280.144, 3952.870
280.626, 3949.844
281.109, 3954.143
281.591, 3970.754
282.073, 3994.651
282.555, 4015.157
283.037, 4035.059
283.519, 4046.467
284.001, 4042.434
284.483, 4034.907
284.966, 4031.225
285.448, 4033.851
285.930, 4043.832
286.412, 4065.629
286.894, 4108.762
287.376, 4133.063
287.858, 4125.916
288.340, 4112.465
288.823, 4101.122
289.305, 4093.923
289.787, 4091.033
290.269, 4091.585
290.751, 4095.672
291.233, 4110.795
291.715, 4142.509
292.197, 4180.161
292.679, 4223.704
293.161, 4269.926
293.644, 4311.889
294.126, 4340.548
294.608, 4367.067
295.090, 4424.219
295.572, 4517.534
296.054, 4630.951
296.536, 4760.020
297.018, 4904.317
297.501, 5061.512
297.983, 5229.194
298.465, 5418.068
298.947, 5640.854
299.429, 5899.201
299.911, 6185.439
300.393, 6527.404
300.875, 6873.882
301.358, 7175.052
301.840, 7424.097
302.322, 7657.563
302.804, 7888.246
303.286, 8121.233
303.768, 8405.029
304.250, 8817.239
304.732, 9153.239
305.214, 9216.419
305.697, 9034.043
306.179, 8673.480
306.661, 8040.989
307.143, 7290.502
307.625, 6601.019
308.107, 5989.033
308.589, 5474.573
309.071, 5087.479
309.553, 4826.784
310.036, 4625.304
310.518, 4510.665
311.000, 4427.854
311.482, 4352.148
311.964, 4281.036
312.446, 4207.342
312.928, 4123.967
313.410, 4039.312
313.892, 3986.353
314.375, 3983.170
314.857, 3981.755
315.339, 3972.994
315.821, 3960.531
316.303, 3949.396
316.785, 3941.284
317.267, 3933.886
317.750, 3923.066
318.232, 3904.559
318.714, 3892.118
319.196, 3890.222
319.678, 3890.609
320.160, 3887.068
320.642, 3879.670
321.124, 3872.986
321.606, 3871.503
322.089, 3875.527
322.571, 3880.281
323.053, 3887.490
323.535, 3893.560
324.017, 3896.813
324.499, 3898.136
324.981, 3899.462
325.463, 3902.122
325.945, 3904.988
326.428, 3903.780
326.910, 3894.966
327.392, 3888.861
327.874, 3888.835
328.356, 3891.659
328.838, 3895.593
329.320, 3900.276
329.802, 3902.694
330.284, 3896.958
330.767, 3882.253
331.249, 3872.847
331.731, 3871.484
332.213, 3876.576
332.695, 3890.710
333.177, 3912.196
333.659, 3927.734
334.141, 3925.684
334.624, 3912.248
335.106, 3902.613
335.588, 3898.118
336.070, 3896.607
336.552, 3900.362
337.034, 3906.254
337.516, 3904.902
337.998, 3887.904
338.480, 3868.372
338.963, 3856.344
339.445, 3851.301
339.927, 3849.145
340.409, 3847.150
340.891, 3847.491
341.373, 3857.448
341.855, 3885.280
342.337, 3906.493
342.819, 3911.543
343.302, 3907.077
343.784, 3900.342
344.266, 3893.348
344.748, 3888.572
345.230, 3888.810
345.712, 3893.191
346.194, 3907.177
346.677, 3942.510
347.159, 3976.574
347.641, 3995.803
348.123, 4001.203
348.605, 4001.170
349.087, 4001.742
349.569, 4002.782
350.051, 4002.610
350.533, 3998.788
351.016, 3996.669
351.498, 3994.968
351.980, 3996.276
352.462, 4004.214
352.944, 4020.311
353.426, 4041.481
353.908, 4061.056
354.390, 4076.265
354.872, 4100.326
355.355, 4128.476
355.837, 4172.014
356.319, 4236.332
356.801, 4322.558
357.283, 4432.146
357.765, 4553.796
358.247, 4696.572
358.729, 4904.873
359.211, 5187.175
359.694, 5520.201
360.176, 5885.369
360.658, 6288.751
361.140, 6758.397
361.622, 7286.946
362.104, 7895.641
362.586, 8601.572
363.069, 9406.872
363.551, 10329.500
364.033, 11429.070
364.515, 12591.690
364.997, 13542.170
365.479, 14211.310
365.961, 14894.640
366.443, 15710.010
366.925, 16569.500
367.408, 17609.381
367.890, 18809.609
368.372, 19410.279
368.854, 18462.609
369.336, 15652.420
369.818, 12984.560
370.300, 10135.210
370.782, 7729.930
371.264, 6129.017
371.747, 5205.210
372.229, 4664.131
372.711, 4352.045
373.193, 4225.377
373.675, 4127.419
374.157, 4069.790
374.639, 4025.247
375.121, 3989.888
375.603, 3964.395
376.086, 3954.059
376.568, 3958.529
377.050, 3963.034
377.532, 3946.766
378.014, 3908.784
378.496, 3884.967
378.978, 3887.175
379.460, 3892.357
379.943, 3886.011
380.425, 3871.488
380.907, 3858.225
381.389, 3849.473
381.871, 3844.692
382.353, 3843.065
382.835, 3844.597
383.317, 3850.024
383.799, 3863.622
384.282, 3878.944
384.764, 3882.723
385.246, 3871.424
385.728, 3857.381
386.210, 3842.891
386.692, 3829.729
387.174, 3821.890
387.656, 3820.415
388.138, 3820.724
388.621, 3816.936
389.103, 3807.174
389.585, 3804.510
390.067, 3815.630
390.549, 3826.947
391.031, 3828.792
391.513, 3825.131
391.996, 3827.457
392.478, 3843.297
392.960, 3867.146
393.442, 3878.900
393.924, 3869.071
394.406, 3862.230
394.888, 3862.953
395.370, 3866.091
395.852, 3867.656
396.335, 3866.885
396.817, 3865.320
397.299, 3866.631
397.781, 3870.607
398.263, 3863.912
398.745, 3835.889
399.227, 3812.794
399.709, 3811.196
400.191, 3824.121
400.674, 3837.777
401.156, 3848.595
401.638, 3856.589
402.120, 3862.005
402.602, 3864.759
403.084, 3863.059
403.566, 3853.910
404.048, 3842.642
404.530, 3839.402
405.013, 3845.789
405.495, 3851.644
405.977, 3855.341
406.459, 3856.715
406.941, 3853.995
407.423, 3847.681
407.905, 3843.193
408.387, 3846.369
408.870, 3857.181
409.352, 3858.323
409.834, 3835.431
410.316, 3820.338
410.798, 3826.138
411.280, 3842.882
411.762, 3858.176
412.244, 3867.139
412.727, 3870.935
413.209, 3870.000
413.691, 3861.496
414.173, 3858.181
414.655, 3864.273
415.137, 3873.027
415.619, 3882.620
416.101, 3892.372
416.583, 3901.358
417.065, 3909.734
417.548, 3916.549
418.030, 3919.460
418.512, 3918.125
418.994, 3914.687
419.476, 3907.603
419.958, 3900.395
420.440, 3898.528
420.922, 3902.644
421.405, 3910.759
421.887, 3926.770
422.369, 3944.849
422.851, 3955.239
423.333, 3955.986
423.815, 3949.816
424.297, 3936.669
424.779, 3914.973
425.262, 3910.068
425.744, 3941.898
426.226, 3967.278
426.708, 3963.507
427.190, 3942.617
427.672, 3925.221
428.154, 3920.674
428.636, 3925.884
429.118, 3936.191
429.601, 3955.873
430.083, 3969.556
430.565, 3966.271
431.047, 3965.323
431.529, 3978.624
432.011, 4004.405
432.493, 4031.892
432.975, 4048.751
433.457, 4064.018
433.940, 4102.309
434.422, 4165.948
434.904, 4241.172
435.386, 4316.948
435.868, 4403.940
436.350, 4516.306
436.832, 4654.571
437.314, 4817.169
437.797, 4994.440
438.279, 5197.945
438.761, 5444.507
439.243, 5739.434
439.725, 6074.309
440.207, 6439.521
440.689, 6836.000
441.171, 7290.159
441.654, 7803.184
442.136, 8364.833
442.618, 8978.326
443.100, 9636.567
443.582, 10335.690
444.064, 11072.120
444.546, 11833.610
445.028, 12613.920
445.510, 13452.450
445.992, 14168.170
446.475, 14736.540
446.957, 15183.020
447.439, 15533.930
447.921, 15771.500
448.403, 15851.560
448.885, 15791.560
449.367, 15528.280
449.849, 14912.570
450.332, 13938.370
450.814, 12812.560
451.296, 11527.490
451.778, 10220.510
452.260, 9068.342
452.742, 8062.912
453.224, 7239.284
453.706, 6651.905
454.189, 6225.651
454.671, 5900.388
455.153, 5662.318
455.635, 5487.788
456.117, 5363.205
456.599, 5285.515
457.081, 5231.629
457.563, 5207.336
458.045, 5201.382
458.528, 5224.646
459.010, 5259.032
459.492, 5285.272
459.974, 5300.388
460.456, 5318.838
460.938, 5359.616
461.420, 5422.417
461.902, 5475.579
462.384, 5512.319
462.867, 5551.108
463.349, 5605.428
463.831, 5666.609
464.313, 5720.129
464.795, 5759.726
465.277, 5796.823
465.759, 5832.237
466.241, 5871.806
466.724, 5934.965
467.206, 6027.771
467.688, 6138.273
468.170, 6252.680
468.652, 6369.457
469.134, 6510.974
469.616, 6669.576
470.098, 6858.645
470.580, 7070.166
471.063, 7319.456
471.545, 7626.220
472.027, 7997.212
472.509, 8454.588
472.991, 9027.722
473.473, 9708.864
473.955, 10544.110
474.437, 11568.460
474.919, 12735.920
475.402, 14045.600
475.884, 15489.970
476.366, 17027.869
476.848, 18601.070
477.330, 20306.170
477.812, 22270.131
478.294, 24500.600
478.776, 27029.311
479.259, 29850.090
479.741, 32978.828
480.223, 36540.750
480.705, 40608.852
481.187, 44556.352
481.669, 49058.629
482.151, 52773.590
482.633, 54813.590
483.116, 55058.039
483.598, 53336.340
484.080, 49409.148
484.562, 43845.711
485.044, 38592.000
485.526, 33684.750
486.008, 29063.869
486.490, 24603.689
486.972, 20512.561
487.454, 16884.461
487.937, 13748.910
488.419, 11172.770
488.901, 9292.188
489.383, 7991.726
489.865, 6995.864
490.347, 6328.508
490.829, 5830.517
491.311, 5478.566
491.794, 5238.801
492.276, 5045.245
492.758, 4904.471
493.240, 4781.904
493.722, 4668.590
494.204, 4564.702
494.686, 4470.615
495.168, 4386.083
495.651, 4311.715
496.133, 4248.066
496.615, 4194.583
497.097, 4151.255
497.579, 4127.284
498.061, 4100.688
498.543, 4063.786
499.025, 4027.648
499.507, 4001.431
499.990, 3985.935
500.472, 3976.227
500.954, 3973.430
501.436, 3973.055
501.918, 3953.510
502.400, 3907.930
502.882, 3872.199
503.364, 3868.629
503.846, 3881.905
504.329, 3884.924
504.811, 3874.011
505.293, 3863.816
505.775, 3859.303
506.257, 3858.749
506.739, 3862.083
507.221, 3868.281
507.703, 3872.571
508.185, 3871.670
508.668, 3865.692
509.150, 3855.126
509.632, 3834.687
510.114, 3816.985
510.596, 3796.341
511.078, 3783.492
511.560, 3793.610
512.042, 3824.046
512.525, 3850.694
513.007, 3849.787
513.489, 3830.564
513.971, 3824.335
514.453, 3833.778
514.935, 3841.865
515.417, 3844.444
515.899, 3838.490
516.381, 3816.922
516.864, 3773.048
517.346, 3739.000
517.828, 3728.271
518.310, 3729.991
518.792, 3737.451
519.274, 3747.772
519.756, 3753.992
520.239, 3750.935
520.721, 3741.311
521.203, 3735.985
521.685, 3735.840
522.167, 3738.668
522.649, 3751.430
523.131, 3761.041
523.613, 3755.479
524.095, 3736.898
524.578, 3719.210
525.060, 3711.732
525.542, 3710.820
526.024, 3710.224
526.506, 3709.972
526.988, 3708.918
527.470, 3707.347
527.952, 3703.921
528.434, 3695.346
528.917, 3680.614
529.399, 3667.420
529.881, 3652.367
530.363, 3643.020
530.845, 3647.389
531.327, 3662.231
531.809, 3680.317
532.291, 3698.504
532.773, 3712.562
533.256, 3710.904
533.738, 3687.240
534.220, 3668.444
534.702, 3653.768
535.184, 3647.843
535.666, 3658.250
536.148, 3679.679
536.630, 3697.360
537.112, 3704.697
537.595, 3706.743
538.077, 3706.878
538.559, 3705.819
539.041, 3708.144
539.523, 3716.285
540.005, 3721.629
540.487, 3711.467
540.969, 3681.432
541.452, 3667.585
541.934, 3684.799
542.416, 3699.954
542.898, 3700.216
543.380, 3691.639
543.862, 3682.681
544.344, 3676.326
544.826, 3672.142
545.308, 3671.332
545.791, 3673.622
546.273, 3669.286
546.755, 3653.499
547.237, 3641.109
547.719, 3646.060
548.201, 3658.835
548.683, 3661.580
549.166, 3647.538
549.648, 3634.423
550.130, 3630.933
550.612, 3632.694
551.094, 3632.706
551.576, 3630.762
552.058, 3635.033
552.540, 3654.576
553.022, 3683.752
553.505, 3685.395
553.987, 3628.479
554.469, 3595.893
554.951, 3617.290
555.433, 3649.129
555.915, 3657.124
556.397, 3641.481
556.879, 3627.252
557.362, 3632.445
557.844, 3647.406
558.326, 3657.866
558.808, 3663.797
559.290, 3662.479
559.772, 3650.270
560.254, 3635.809
560.736, 3633.284
561.218, 3647.586
561.701, 3657.235
562.183, 3656.859
562.665, 3656.807
563.147, 3663.882
563.629, 3674.795
564.111, 3683.618
564.593, 3687.920
565.075, 3687.909
565.557, 3679.047
566.040, 3660.618
566.522, 3664.361
567.004, 3709.460
567.486, 3745.749
567.968, 3730.435
568.450, 3684.966
568.932, 3650.200
569.414, 3633.131
569.896, 3623.618
570.379, 3617.772
570.861, 3616.252
571.343, 3621.317
571.825, 3632.534
572.307, 3646.411
572.789, 3661.428
573.271, 3675.608
573.753, 3676.719
574.235, 3654.563
574.718, 3638.640
575.200, 3632.584
575.682, 3634.899
576.164, 3651.372
576.646, 3678.135
577.128, 3694.886
577.610, 3679.825
578.093, 3656.642
578.575, 3656.382
579.057, 3675.333
579.539, 3695.232
580.021, 3710.276
580.503, 3720.874
580.985, 3727.174
581.467, 3728.438
581.949, 3728.881
582.432, 3724.091
582.914, 3723.506
583.396, 3734.817
583.878, 3750.363
584.360, 3757.001
584.842, 3751.374
585.324, 3748.950
585.806, 3768.339
586.289, 3804.719
586.771, 3837.198
587.253, 3863.885
587.735, 3893.223
588.217, 3935.623
588.699, 3980.516
589.181, 3998.893
589.663, 3979.313
590.145, 3964.442
590.628, 3962.493
591.110, 3966.291
591.592, 3970.304
592.074, 3975.256
592.556, 3985.306
593.038, 4003.151
593.520, 4025.104
594.002, 4041.311
594.484, 4049.802
594.967, 4074.488
595.449, 4126.349
595.931, 4182.888
596.413, 4229.206
596.895, 4267.233
597.377, 4300.624
597.859, 4326.289
598.341, 4352.160
598.823, 4386.815
599.306, 4421.652
599.788, 4441.658
600.270, 4446.724
600.752, 4452.334
601.234, 4471.526
601.716, 4501.657
602.198, 4531.079
602.680, 4563.748
603.162, 4585.838
603.645, 4584.496
604.127, 4579.472
604.609, 4585.691
605.091, 4601.850
605.573, 4615.976
606.055, 4622.671
606.537, 4626.293
607.019, 4633.246
607.502, 4639.791
607.984, 4635.478
608.466, 4617.275
608.948, 4592.940
609.430, 4571.469
609.912, 4553.077
610.394, 4528.687
610.876, 4495.789
611.359, 4460.128
611.841, 4423.928
612.323, 4385.108
612.805, 4340.374
613.287, 4289.668
613.769, 4239.130
614.251, 4197.417
614.733, 4154.599
615.216, 4092.105
615.698, 4014.003
616.180, 3943.621
616.662, 3890.918
617.144, 3848.936
617.626, 3808.025
618.108, 3768.612
618.590, 3729.192
619.072, 3687.302
619.555, 3648.461
620.037, 3608.384
620.519, 3574.970
621.001, 3561.861
621.483, 3572.319
621.965, 3583.673
622.447, 3574.331
622.929, 3554.656
623.411, 3544.287
623.894, 3544.199
624.376, 3553.438
624.858, 3574.678
625.340, 3597.783
625.822, 3601.148
626.304, 3571.929
626.786, 3555.934
627.268, 3563.951
627.750, 3572.357
628.233, 3570.756
628.715, 3562.860
629.197, 3554.260
629.679, 3546.446
630.161, 3543.192
630.643, 3555.227
631.125, 3573.795
631.607, 3570.802
632.089, 3543.718
632.572, 3520.304
633.054, 3516.594
633.536, 3526.993
634.018, 3537.903
634.500, 3552.845
634.982, 3561.024
635.464, 3555.589
635.946, 3550.374
636.429, 3551.674
636.911, 3558.621
637.393, 3569.571
637.875, 3584.527
638.357, 3598.615
638.839, 3606.005
639.321, 3608.290
639.803, 3608.721
640.286, 3607.311
640.768, 3611.477
641.250, 3626.925
641.732, 3649.938
642.214, 3669.604
642.696, 3677.658
643.178, 3696.747
643.660, 3741.121
644.143, 3782.402
644.625, 3804.555
645.107, 3811.907
645.589, 3814.890
646.071, 3817.362
646.553, 3818.655
647.035, 3813.293
647.517, 3806.346
647.999, 3812.684
648.482, 3834.111
648.964, 3869.482
649.446, 3918.763
649.928, 3981.045
650.410, 4051.929
650.892, 4126.117
651.374, 4219.555
651.856, 4332.000
652.338, 4463.161
652.821, 4597.397
653.303, 4753.014
653.785, 4960.720
654.267, 5229.963
654.749, 5563.075
655.231, 6014.752
655.713, 6523.151
656.195, 6989.680
656.677, 7396.686
657.160, 7531.417
657.642, 7233.024
658.124, 6621.053
658.606, 6017.130
659.088, 5337.750
659.570, 4834.113
660.052, 4555.641
660.534, 4381.680
661.016, 4299.829
661.499, 4272.163
661.981, 4245.469
662.463, 4205.209
662.945, 4151.060
663.427, 4075.642
663.909, 3988.392
664.391, 3903.317
664.873, 3823.054
665.356, 3752.295
665.838, 3694.250
666.320, 3648.147
666.802, 3613.243
667.284, 3594.036
667.766, 3573.920
668.248, 3546.099
668.730, 3525.108
669.213, 3519.953
669.695, 3523.876
670.177, 3526.735
670.659, 3526.294
671.141, 3525.014
671.623, 3522.313
672.105, 3520.812
672.587, 3525.516
673.070, 3535.072
673.552, 3542.501
674.034, 3544.396
674.516, 3543.851
674.998, 3545.999
675.480, 3551.000
675.962, 3558.308
676.444, 3572.435
676.926, 3581.641
677.409, 3575.304
677.891, 3563.970
678.373, 3561.930
678.855, 3572.171
679.337, 3578.554
679.819, 3579.403
680.301, 3570.564
680.783, 3539.158
681.265, 3496.592
681.748, 3467.982
682.230, 3462.417
682.712, 3469.861
683.194, 3483.949
683.676, 3502.844
684.158, 3493.579
684.640, 3445.612
685.122, 3406.740
685.604, 3398.797
686.087, 3404.985
686.569, 3401.137
687.051, 3386.369
687.533, 3378.399
688.015, 3384.362
688.497, 3392.072
688.979, 3399.523
689.461, 3403.426
689.943, 3395.627
690.426, 3376.994
690.908, 3363.871
691.390, 3374.110
691.872, 3397.711
692.354, 3408.387
692.836, 3406.320
693.318, 3403.555
693.800, 3403.092
694.283, 3404.469
694.765, 3408.595
695.247, 3415.541
695.729, 3414.185
696.211, 3395.357
696.693, 3380.678
697.175, 3376.341
697.657, 3375.291
698.140, 3371.436
698.622, 3365.071
699.104, 3360.208
699.586, 3358.017
700.068, 3359.602
700.550, 3371.759
701.032, 3388.240
701.514, 3390.159
701.997, 3374.729
702.479, 3354.490
702.961, 3337.520
703.443, 3325.106
703.925, 3322.701
704.407, 3335.475
704.889, 3345.537
705.371, 3350.449
705.853, 3353.500
706.336, 3357.466
706.818, 3360.752
707.300, 3358.895
707.782, 3347.804
708.264, 3340.493
708.746, 3348.293
709.228, 3359.390
709.710, 3361.398
710.192, 3355.035
710.675, 3344.610
711.157, 3331.977
711.639, 3322.899
712.121, 3330.314
712.603, 3353.486
713.085, 3363.716
713.567, 3358.488
714.049, 3345.410
714.531, 3321.532
715.014, 3297.264
715.496, 3293.145
715.978, 3315.100
716.460, 3328.628
716.942, 3323.856
717.424, 3319.198
717.906, 3327.333
718.388, 3337.696
718.870, 3333.798
719.353, 3313.849
719.835, 3294.372
720.317, 3285.201
720.799, 3285.909
721.281, 3303.074
721.763, 3331.568
722.245, 3343.667
722.727, 3331.071
723.210, 3308.749
723.692, 3289.875
724.174, 3274.997
724.656, 3271.389
725.138, 3288.626
725.620, 3298.712
726.102, 3291.453
726.584, 3280.712
727.067, 3271.223
727.549, 3265.147
728.031, 3269.048
728.513, 3293.439
728.995, 3312.611
729.477, 3308.800
729.959, 3295.715
730.441, 3289.864
730.924, 3290.385
731.406, 3284.663
731.888, 3265.041
732.370, 3243.465
732.852, 3240.276
733.334, 3254.589
733.816, 3274.558
734.298, 3302.878
734.780, 3318.935
735.263, 3308.388
735.745, 3283.132
736.227, 3265.415
736.709, 3256.884
737.191, 3251.177
737.673, 3254.388
738.155, 3253.194
738.637, 3235.846
739.119, 3215.123
739.602, 3206.889
740.084, 3213.342
740.566, 3224.426
741.048, 3240.345
741.530, 3252.788
742.012, 3245.235
742.494, 3227.044
742.976, 3225.989
743.458, 3247.746
743.941, 3270.545
744.423, 3274.635
744.905, 3263.718
745.387, 3253.527
745.869, 3244.326
746.351, 3233.878
746.833, 3216.769
747.315, 3206.083
747.797, 3215.246
748.280, 3238.751
748.762, 3258.353
749.244, 3277.172
749.726, 3285.440
750.208, 3271.898
750.690, 3255.794
751.172, 3249.290
751.654, 3251.221
752.137, 3257.893
752.619, 3268.160
753.101, 3277.745
753.583, 3281.810
754.065, 3282.656
754.547, 3282.342
755.029, 3282.278
755.511, 3293.238
755.994, 3320.478
756.476, 3348.243
756.958, 3353.993
757.440, 3337.794
757.922, 3340.636
758.404, 3371.781
758.886, 3402.192
759.368, 3427.638
759.851, 3447.234
760.333, 3468.598
760.815, 3486.818
761.297, 3473.365
761.779, 3390.166
762.261, 3317.944
762.743, 3288.695
763.225, 3278.066
763.707, 3267.109
764.190, 3252.794
764.672, 3234.944
765.154, 3212.101
765.636, 3193.409
766.118, 3195.359
766.600, 3209.378
767.082, 3209.577
767.564, 3194.687
768.046, 3175.365
768.529, 3155.225
769.011, 3140.602
769.493, 3143.158
769.975, 3165.290
770.457, 3182.436
770.939, 3195.751
771.421, 3201.736
771.903, 3195.445
772.385, 3184.214
772.868, 3171.918
773.350, 3159.493
773.832, 3156.182
774.314, 3173.983
774.796, 3188.534
775.278, 3190.013
775.760, 3183.830
776.242, 3173.052
776.724, 3160.012
777.207, 3149.138
777.689, 3143.108
778.171, 3138.718
778.653, 3129.607
779.135, 3119.378
779.617, 3122.209
780.099, 3137.670
780.581, 3142.819
781.064, 3124.380
781.546, 3099.216
782.028, 3097.513
782.510, 3122.971
782.992, 3137.580
783.474, 3136.868
783.956, 3134.690
784.438, 3133.678
784.920, 3134.809
785.403, 3139.981
785.885, 3148.905
786.367, 3156.677
786.849, 3167.177
787.331, 3170.731
787.813, 3155.578
788.295, 3138.592
788.778, 3138.070
789.260, 3150.421
789.742, 3159.242
790.224, 3156.994
790.706, 3148.883
791.188, 3136.048
791.670, 3122.544
792.152, 3115.969
792.634, 3116.435
793.117, 3122.563
793.599, 3134.074
794.081, 3142.837
794.563, 3134.277
795.045, 3109.153
795.527, 3096.371
796.009, 3099.004
796.491, 3101.750
796.973, 3100.763
797.456, 3096.776
797.938, 3089.863
798.420, 3080.116
798.902, 3071.255
799.384, 3058.550
799.866, 3053.282
800.348, 3062.682
800.830, 3074.629
801.312, 3080.367
801.795, 3082.066
802.277, 3086.672
802.759, 3097.065
803.241, 3106.992
803.723, 3112.521
804.205, 3115.802
804.687, 3119.829
805.169, 3123.489
805.652, 3123.786
806.134, 3119.724
806.616, 3112.094
807.098, 3099.188
807.580, 3084.579
808.062, 3081.137
808.544, 3088.277
809.026, 3095.113
809.508, 3099.524
809.991, 3099.656
810.473, 3093.108
810.955, 3081.587
811.437, 3072.723
811.919, 3066.716
812.401, 3062.678
812.883, 3059.483
813.365, 3059.657
813.847, 3067.357
814.330, 3077.957
814.812, 3085.081
815.294, 3088.511
815.776, 3087.161
816.258, 3069.261
816.740, 3059.532
817.222, 3081.289
817.705, 3111.929
818.187, 3121.528
818.669, 3108.661
819.151, 3095.353
819.633, 3095.686
820.115, 3098.944
820.597, 3091.339
821.079, 3078.996
821.561, 3075.257
822.044, 3080.309
822.526, 3084.558
823.008, 3082.552
823.490, 3079.201
823.972, 3083.815
824.454, 3095.802
824.936, 3102.464
825.418, 3102.438
825.901, 3105.703
826.383, 3116.215
826.865, 3130.441
827.347, 3143.384
827.829, 3155.140
828.311, 3175.403
828.793, 3211.356
829.275, 3243.764
829.757, 3259.552
830.240, 3281.185
830.722, 3323.383
831.204, 3381.503
831.686, 3443.133
832.168, 3504.668
832.650, 3575.300
833.132, 3676.504
833.614, 3769.201
834.096, 3844.131
834.578, 3886.187
835.061, 3867.739
835.543, 3787.511
836.025, 3687.924
836.507, 3580.641
836.989, 3486.607
837.471, 3429.863
837.953, 3406.756
838.435, 3422.191
838.917, 3468.760
839.400, 3503.493
839.882, 3499.256
840.364, 3466.150
840.846, 3418.017
841.328, 3356.221
841.810, 3293.034
842.292, 3227.010
842.774, 3179.842
843.257, 3163.196
843.739, 3161.565
844.221, 3154.270
844.703, 3141.064
845.185, 3137.021
845.667, 3141.154
846.149, 3156.117
846.631, 3178.126
847.114, 3215.952
847.596, 3287.850
848.078, 3379.010
848.560, 3445.691
849.042, 3466.094
849.524, 3506.509
850.006, 3592.131
850.488, 3687.777
850.971, 3759.372
851.453, 3835.623
851.935, 3959.876
852.417, 4138.303
852.899, 4335.599
853.381, 4640.967
853.863, 4848.628
854.345, 4748.805
854.827, 4452.837
855.310, 4071.423
855.792, 3662.744
856.274, 3339.099
856.756, 3165.040
857.238, 3083.035
857.720, 3033.836
858.202, 3010.429
858.684, 2992.305
859.166, 2978.109
859.649, 2964.863
860.131, 2951.233
860.613, 2942.873
861.095, 2947.155
861.577, 2961.565
862.059, 2970.577
862.541, 2973.044
863.023, 2976.778
863.505, 2985.058
863.988, 2989.024
864.470, 2979.442
864.952, 2964.168
865.434, 2963.160
865.916, 2982.725
866.398, 2997.489
866.880, 3012.407
867.362, 3016.151
867.844, 2993.619
868.327, 2967.463
868.809, 2959.678
869.291, 2969.378
869.773, 2981.566
870.255, 3002.645
870.737, 3012.686
871.219, 2996.271
871.701, 2974.688
872.184, 2962.462
872.666, 2958.816
873.148, 2960.323
873.630, 2966.075
874.112, 2970.529
874.594, 2968.299
875.076, 2964.561
875.558, 2967.200
876.041, 2971.191
876.523, 2964.036
877.005, 2946.267
877.487, 2932.521
877.969, 2932.361
878.451, 2940.188
878.933, 2948.442
879.415, 2957.577
879.898, 2973.082
880.380, 2993.211
880.862, 2997.713
881.344, 2977.734
881.826, 2955.010
882.308, 2957.866
882.790, 2980.667
883.272, 2987.367
883.754, 2975.764
884.237, 2970.792
884.719, 2977.952
885.201, 2989.281
885.683, 3000.869
886.165, 3010.985
886.647, 3013.857
887.129, 3004.607
887.611, 3007.409
888.093, 3032.626
888.576, 3051.865
889.058, 3051.092
889.540, 3044.402
890.022, 3048.225
890.504, 3060.747
890.986, 3065.641
891.468, 3057.135
891.950, 3048.558
892.432, 3040.706
892.915, 3033.981
893.397, 3028.466
893.879, 3024.296
894.361, 3022.497
894.843, 3023.435
895.325, 3021.875
895.807, 3018.582
896.289, 3009.219
896.771, 2981.907
897.254, 2953.778
897.736, 2948.009
898.218, 2960.183
898.700, 2966.357
899.182, 2954.606
899.664, 2942.263
900.146, 2948.625
900.628, 2958.287
901.111, 2949.070
901.593, 2927.594
902.075, 2911.023
902.557, 2903.818
903.039, 2899.873
903.521, 2894.896
904.003, 2889.389
904.485, 2883.459
904.968, 2877.791
905.450, 2875.820
905.932, 2877.147
906.414, 2874.507
906.896, 2864.234
907.378, 2856.832
907.860, 2871.354
908.342, 2901.018
908.825, 2903.752
909.307, 2879.518
909.789, 2862.446
910.271, 2860.255
910.753, 2864.436
911.235, 2870.067
911.717, 2875.067
912.199, 2873.272
912.681, 2862.854
913.164, 2855.966
913.646, 2852.234
914.128, 2853.875
914.610, 2864.615
915.092, 2876.068
915.574, 2879.470
916.056, 2875.523
916.538, 2870.138
917.020, 2858.321
917.503, 2855.270
917.985, 2869.944
918.467, 2883.132
918.949, 2883.477
919.431, 2878.032
919.913, 2877.910
920.395, 2884.125
920.877, 2884.519
921.359, 2876.329
921.842, 2864.993
922.324, 2841.726
922.806, 2824.996
923.288, 2833.916
923.770, 2858.474
924.252, 2873.916
924.734, 2873.398
925.216, 2876.261
925.698, 2896.615
926.181, 2912.426
926.663, 2906.558
927.145, 2893.579
927.627, 2889.175
928.109, 2894.280
928.591, 2902.925
929.073, 2913.784
929.555, 2925.313
930.038, 2936.683
930.520, 2948.182
931.002, 2949.672
931.484, 2955.467
931.966, 3008.917
932.448, 3106.441
932.930, 3161.521
933.412, 3099.385
933.894, 3004.688
934.377, 2955.394
934.859, 2933.718
935.341, 2914.929
935.823, 2897.653
936.305, 2887.213
936.787, 2885.858
937.269, 2894.956
937.752, 2922.646
938.234, 2956.163
938.716, 2972.210
939.198, 2976.045
939.680, 2976.785
940.162, 2978.774
940.644, 2996.092
941.126, 3036.700
941.608, 3088.184
942.091, 3128.395
942.573, 3165.174
943.055, 3227.853
943.537, 3314.478
944.019, 3405.766
944.501, 3497.587
944.983, 3599.638
945.465, 3718.412
945.947, 3851.785
946.430, 3988.365
946.912, 4130.028
947.394, 4309.314
947.876, 4527.199
948.358, 4773.968
948.840, 5052.434
949.322, 5312.848
949.804, 5522.596
950.286, 5650.582
950.769, 5563.570
951.251, 5243.370
951.733, 4869.973
952.215, 4433.418
952.697, 4051.960
953.179, 3771.785
953.661, 3570.603
954.143, 3426.329
954.625, 3335.811
955.108, 3273.613
955.590, 3250.262
956.072, 3214.139
956.554, 3151.496
957.036, 3096.670
957.518, 3072.841
958.000, 3059.407
958.482, 3018.840
958.965, 2947.455
959.447, 2915.231
959.929, 2945.736
960.411, 2961.845
960.893, 2941.234
961.375, 2919.200
961.857, 2920.573
962.339, 2934.164
962.821, 2934.528
963.304, 2915.872
963.786, 2911.398
964.268, 2932.779
964.750, 2950.001
965.232, 2957.766
965.714, 2958.597
966.196, 2945.344
966.679, 2927.364
967.161, 2935.709
967.643, 2989.612
968.125, 3015.677
968.607, 2998.923
969.089, 2971.700
969.571, 2933.252
970.053, 2895.975
970.535, 2872.002
971.018, 2858.586
971.500, 2843.876
971.982, 2825.355
972.464, 2809.230
972.946, 2797.034
973.428, 2786.526
973.910, 2783.456
974.392, 2776.829
974.875, 2746.512
975.357, 2699.321
975.839, 2677.098
976.321, 2702.570
976.803, 2722.457
977.285, 2722.238
977.767, 2718.888
978.249, 2715.844
978.731, 2717.913
979.214, 2736.944
979.696, 2769.604
980.178, 2784.097
980.660, 2751.782
981.142, 2734.676
981.624, 2764.089
982.106, 2798.506
982.588, 2808.311
983.070, 2808.603
983.553, 2819.384
984.035, 2843.943
984.517, 2882.643
984.999, 2949.293
985.481, 3011.321
985.963, 3047.872
986.445, 3085.950
986.927, 3143.894
987.409, 3217.262
987.892, 3295.030
988.374, 3375.902
988.856, 3475.120
989.338, 3601.390
989.820, 3742.401
990.302, 3894.102
990.784, 4057.244
991.266, 4271.624
991.748, 4483.235
992.231, 4601.820
992.713, 4610.199
993.195, 4552.153
993.677, 4395.630
994.159, 4239.649
994.641, 4121.561
995.123, 4032.182
995.606, 3987.389
996.088, 3956.781
996.570, 3887.397
997.052, 3767.563
997.534, 3621.364
998.016, 3429.917
998.498, 3252.098
998.980, 3113.580
999.462, 3006.706
999.945, 2926.830
1000.427, 2871.334
1000.909, 2841.670
1001.391, 2838.740
1001.873, 2834.303
1002.355, 2813.829
1002.837, 2790.832
1003.319, 2766.834
1003.801, 2748.592
1004.284, 2748.892
1004.766, 2758.455
1005.248, 2755.539
1005.730, 2734.460
1006.212, 2712.370
1006.694, 2695.258
1007.176, 2681.296
1007.658, 2668.769
1008.141, 2659.674
1008.623, 2656.335
1009.105, 2658.120
1009.587, 2664.214
1010.069, 2674.666
1010.551, 2683.900
1011.033, 2692.628
1011.515, 2695.659
1011.997, 2683.676
1012.480, 2670.319
1012.962, 2667.322
1013.444, 2673.754
1013.926, 2686.760
1014.408, 2706.333
1014.890, 2720.138
1015.372, 2709.502
1015.854, 2709.182
1016.336, 2737.389
1016.819, 2782.514
1017.301, 2822.495
1017.783, 2873.570
1018.265, 2967.301
1018.747, 3109.540
1019.229, 3307.412
1019.711, 3550.534
1020.193, 3866.163
1020.676, 4274.902
1021.158, 4752.060
1021.640, 5267.519
1022.122, 5836.888
1022.604, 6481.314
1023.086, 7199.337
1023.568, 8081.906
1024.050, 9213.346
1024.532, 10441.680
1025.015, 12038.660
1025.497, 13392.490
1025.979, 14224.820
1026.461, 14389.690
1026.943, 13539.650
1027.425, 11566.420
1027.907, 9548.614
1028.389, 7426.718
1028.872, 5711.293
1029.354, 4617.172
1029.836, 3889.836
1030.318, 3448.030
1030.800, 3203.924
1031.282, 3048.618
1031.764, 2974.039
1032.246, 2921.023
1032.729, 2895.269
1033.211, 2870.150
1033.693, 2828.693
1034.175, 2798.679
1034.657, 2802.336
1035.139, 2825.692
1035.621, 2849.119
1036.103, 2871.988
1036.585, 2888.452
1037.068, 2885.743
1037.550, 2895.385
1038.032, 2922.783
1038.514, 2961.036
1038.996, 3006.410
1039.478, 3061.097
1039.960, 3132.199
1040.442, 3219.505
1040.924, 3297.151
1041.407, 3365.133
1041.889, 3423.899
1042.371, 3472.760
1042.853, 3514.107
1043.335, 3557.684
1043.817, 3585.534
1044.299, 3578.774
1044.781, 3536.904
1045.264, 3451.121
1045.746, 3302.472
1046.228, 3158.594
1046.710, 3016.181
1047.192, 2894.479
1047.674, 2801.379
1048.156, 2732.660
1048.638, 2685.840
1049.120, 2658.588
1049.603, 2640.254
1050.085, 2632.605
1050.567, 2627.697
1051.049, 2628.450
1051.531, 2617.547
1052.013, 2583.993
1052.495, 2555.260
1052.977, 2559.088
1053.459, 2582.626
1053.942, 2584.411
1054.424, 2562.146
1054.906, 2552.191
1055.388, 2556.237
1055.870, 2562.210
1056.352, 2567.531
1056.834, 2566.943
1057.316, 2555.362
1057.799, 2539.064
1058.281, 2530.875
1058.763, 2530.208
1059.245, 2530.471
1059.727, 2531.788
1060.209, 2538.629
1060.691, 2551.643
1061.173, 2559.935
1061.656, 2556.597
1062.138, 2547.523
1062.620, 2538.538
1063.102, 2531.927
1063.584, 2537.882
1064.066, 2553.300
1064.548, 2566.492
1065.030, 2575.538
1065.512, 2582.382
1065.995, 2587.979
1066.477, 2588.524
1066.959, 2575.195
1067.441, 2558.583
1067.923, 2556.476
1068.405, 2565.684
1068.887, 2584.261
1069.369, 2607.432
1069.851, 2622.894
1070.334, 2626.430
1070.816, 2622.945
1071.298, 2611.819
1071.780, 2602.194
1072.262, 2607.078
1072.744, 2616.656
1073.226, 2615.811
1073.708, 2609.896
1074.191, 2611.188
1074.673, 2622.636
1075.155, 2641.424
1075.637, 2666.901
1076.119, 2697.450
1076.601, 2739.137
1077.083, 2778.404
1077.565, 2794.096
1078.047, 2806.073
1078.530, 2842.840
1079.012, 2904.412
1079.494, 2972.292
1079.976, 3043.267
1080.458, 3113.843
1080.940, 3203.126
1081.422, 3266.860
1081.904, 3280.588
1082.386, 3261.252
1082.869, 3214.103
1083.351, 3149.607
1083.833, 3090.556
1084.315, 3036.835
1084.797, 2998.698
1085.279, 2992.992
1085.761, 2979.976
1086.243, 2940.935
1086.725, 2904.681
1087.208, 2896.413
1087.690, 2897.156
1088.172, 2870.646
1088.654, 2814.577
1089.136, 2777.776
1089.618, 2770.287
1090.100, 2753.560
1090.582, 2717.507
1091.065, 2687.790
1091.547, 2678.963
1092.029, 2676.209
1092.511, 2661.006
1092.993, 2636.555
1093.475, 2618.965
1093.957, 2608.296
1094.439, 2605.147
1094.922, 2610.218
1095.404, 2611.410
1095.886, 2604.299
1096.368, 2599.865
1096.850, 2608.524
1097.332, 2621.345
1097.814, 2616.850
1098.296, 2600.382
1098.778, 2599.083
1099.260, 2609.277
1099.743, 2606.908
1100.225, 2589.127
1100.707, 2574.760
1101.189, 2574.678
1101.671, 2574.352
1102.153, 2548.401
1102.635, 2518.247
1103.117, 2522.321
1103.600, 2544.761
1104.082, 2557.440
1104.564, 2559.434
1105.046, 2560.926
1105.528, 2565.091
1106.010, 2565.660
1106.492, 2554.050
1106.974, 2543.819
1107.457, 2544.345
1107.939, 2551.476
1108.421, 2565.974
1108.903, 2581.768
1109.385, 2590.448
1109.867, 2591.088
1110.349, 2587.425
1110.831, 2578.561
1111.313, 2569.865
1111.796, 2557.840
1112.278, 2552.332
1112.760, 2568.765
1113.242, 2584.545
1113.724, 2572.630
1114.206, 2542.348
1114.688, 2527.996
1115.170, 2537.115
1115.652, 2531.995
1116.135, 2498.254
1116.617, 2479.929
1117.099, 2493.906
1117.581, 2507.317
1118.063, 2500.935
1118.545, 2483.976
1119.027, 2467.897
1119.509, 2453.984
1119.992, 2457.437
1120.474, 2480.519
1120.956, 2497.122
1121.438, 2505.379
1121.920, 2499.570
1122.402, 2476.776
1122.884, 2452.645
1123.366, 2441.416
1123.849, 2437.947
1124.331, 2430.618
1124.813, 2422.429
1125.295, 2426.646
1125.777, 2439.781
1126.259, 2446.186
1126.741, 2444.400
1127.223, 2448.006
1127.705, 2464.422
1128.188, 2477.174
1128.670, 2461.063
1129.152, 2441.819
1129.634, 2451.586
1130.116, 2474.216
1130.598, 2492.614
1131.080, 2503.141
1131.562, 2502.102
1132.044, 2489.727
1132.527, 2477.155
1133.009, 2462.721
1133.491, 2459.641
1133.973, 2486.969
1134.455, 2511.704
1134.937, 2509.641
1135.419, 2496.939
1135.901, 2494.859
1136.384, 2500.378
1136.866, 2492.752
1137.348, 2461.538
1137.830, 2443.848
1138.312, 2442.724
1138.794, 2450.773
1139.276, 2475.000
1139.758, 2491.420
1140.240, 2481.961
1140.723, 2461.540
1141.205, 2454.458
1141.687, 2459.142
1142.169, 2459.491
1142.651, 2455.301
1143.133, 2451.873
1143.615, 2449.750
1144.097, 2442.509
1144.579, 2427.763
1145.062, 2424.499
1145.544, 2451.986
1146.026, 2488.173
1146.508, 2490.800
1146.990, 2475.276
1147.472, 2477.201
1147.954, 2491.613
1148.436, 2501.556
1148.919, 2506.141
1149.401, 2516.016
1149.883, 2535.652
1150.365, 2555.023
1150.847, 2560.305
1151.329, 2570.577
1151.811, 2606.792
1152.293, 2648.292
1152.776, 2684.573
1153.258, 2707.016
1153.740, 2697.066
1154.222, 2657.845
1154.704, 2631.438
1155.186, 2641.985
1155.668, 2634.517
1156.150, 2587.915
1156.632, 2541.153
1157.115, 2504.582
1157.597, 2473.487
1158.079, 2442.537
1158.561, 2416.326
1159.043, 2406.754
1159.525, 2414.301
1160.007, 2411.290
1160.489, 2394.733
1160.971, 2391.765
1161.454, 2406.782
1161.936, 2425.538
1162.418, 2442.857
1162.900, 2448.463
1163.382, 2429.918
1163.864, 2400.872
1164.346, 2387.428
1164.828, 2385.737
1165.311, 2388.573
1165.793, 2393.611
1166.275, 2395.595
1166.757, 2394.214
1167.239, 2394.303
1167.721, 2398.209
1168.203, 2394.772
1168.685, 2366.243
1169.167, 2339.282
1169.650, 2337.408
1170.132, 2341.105
1170.614, 2326.019
1171.096, 2307.384
1171.578, 2318.096
1172.060, 2355.745
1172.542, 2372.842
1173.024, 2350.080
1173.506, 2331.925
1173.989, 2323.459
1174.471, 2315.896
1174.953, 2306.225
1175.435, 2298.448
1175.917, 2295.659
1176.399, 2296.049
1176.881, 2296.850
1177.363, 2297.849
1177.846, 2295.421
1178.328, 2289.636
1178.810, 2290.799
1179.292, 2299.517
1179.774, 2308.171
1180.256, 2314.275
1180.738, 2324.163
1181.220, 2345.114
1181.703, 2359.499
1182.185, 2327.650
1182.667, 2286.701
1183.149, 2300.067
1183.631, 2341.154
1184.113, 2364.789
1184.595, 2370.477
1185.077, 2377.812
1185.559, 2391.784
1186.042, 2397.384
1186.524, 2381.567
1187.006, 2365.951
1187.488, 2352.920
1187.970, 2347.656
1188.452, 2358.392
1188.934, 2373.887
1189.416, 2384.305
1189.898, 2389.334
1190.381, 2387.768
1190.863, 2378.848
1191.345, 2368.018
1191.827, 2354.401
1192.309, 2343.156
1192.791, 2335.112
1193.273, 2330.207
1193.755, 2328.850
1194.238, 2325.230
1194.720, 2311.123
1195.202, 2296.963
1195.684, 2310.869
1196.166, 2338.369
1196.648, 2341.734
1197.130, 2328.103
1197.612, 2318.827
1198.094, 2316.598
1198.577, 2313.655
1199.059, 2307.007
1199.541, 2301.607
1200.023, 2299.591
1200.505, 2300.696
1200.987, 2307.630
1201.469, 2314.512
1201.951, 2318.448
1202.433, 2318.861
1202.916, 2312.925
1203.398, 2302.675
1203.880, 2299.104
1204.362, 2305.067
1204.844, 2305.654
1205.326, 2298.766
1205.808, 2293.775
1206.290, 2292.762
1206.773, 2291.086
1207.255, 2285.882
1207.737, 2282.645
1208.219, 2287.392
1208.701, 2299.002
1209.183, 2319.750
1209.665, 2343.525
1210.147, 2347.530
1210.630, 2340.353
1211.112, 2347.607
1211.594, 2372.133
1212.076, 2401.323
1212.558, 2430.120
1213.040, 2472.627
1213.522, 2538.409
1214.004, 2618.916
1214.486, 2706.595
1214.969, 2810.378
1215.451, 2935.898
1215.933, 3081.417
1216.415, 3261.083
1216.897, 3459.716
1217.379, 3617.675
1217.861, 3734.153
1218.343, 3811.769
1218.825, 3839.837
1219.308, 3869.469
1219.790, 3904.794
1220.272, 3972.993
1220.754, 4088.702
1221.236, 4218.972
1221.718, 4339.557
1222.200, 4424.641
1222.682, 4416.459
1223.165, 4342.008
1223.647, 4265.869
1224.129, 4167.350
1224.611, 3986.396
1225.093, 3734.037
1225.575, 3458.091
1226.057, 3176.180
1226.539, 2943.197
1227.021, 2790.392
1227.504, 2682.230
1227.986, 2630.296
1228.468, 2592.957
1228.950, 2551.668
1229.432, 2513.200
1229.914, 2480.963
1230.396, 2458.542
1230.878, 2458.500
1231.360, 2480.854
1231.843, 2474.652
1232.325, 2438.296
1232.807, 2399.036
1233.289, 2360.318
1233.771, 2339.631
1234.253, 2341.570
1234.735, 2342.319
1235.217, 2324.024
1235.700, 2301.709
1236.182, 2292.124
1236.664, 2289.091
1237.146, 2288.252
1237.628, 2287.126
1238.110, 2281.645
1238.592, 2274.011
1239.074, 2266.200
1239.557, 2259.923
1240.039, 2266.854
1240.521, 2304.938
1241.003, 2321.545
1241.485, 2296.774
1241.967, 2284.105
1242.449, 2300.186
1242.931, 2318.712
1243.413, 2325.546
1243.896, 2323.601
1244.378, 2314.251
1244.860, 2303.062
1245.342, 2310.310
1245.824, 2330.276
1246.306, 2341.855
1246.788, 2345.754
1247.270, 2347.841
1247.752, 2349.264
1248.235, 2347.479
1248.717, 2341.532
1249.199, 2341.597
1249.681, 2361.306
1250.163, 2377.742
1250.645, 2376.173
1251.127, 2372.790
1251.609, 2376.236
1252.092, 2383.960
1252.574, 2394.633
1253.056, 2406.224
1253.538, 2414.047
1254.020, 2418.073
1254.502, 2419.594
1254.984, 2418.557
1255.466, 2416.930
1255.948, 2414.749
1256.431, 2404.626
1256.913, 2385.131
1257.395, 2367.991
1257.877, 2360.668
1258.359, 2360.751
1258.841, 2371.457
1259.323, 2381.955
1259.805, 2381.096
1260.287, 2373.619
1260.770, 2358.261
1261.252, 2343.978
1261.734, 2348.049
1262.216, 2367.983
1262.698, 2378.050
1263.180, 2373.982
##END=



