##NAMES=Chambersite
##RRUFFID=R060425
##IDEAL CHEMISTRY=Mn^2+^_3_B_7_O_13_Cl
##LOCALITY=Venice Dome, Plaquemines Parish, Louisiana, USA
##OWNER=RRUFF
##SOURCE=Michael Scott
##DESCRIPTION=Brown pseudotetrahedra
##STATUS=The identification of this mineral is confirmed by single-crystal X-ray diffraction and chemical analysis.
##URL=rruff.info/R060425
##MEASURED CHEMISTRY=(Mn_2.93_Fe^2+^_0.05_Mg_0.02_)_Î£=3_B_7.00_O_13_Cl_1.00_ ; B not measured but estimated by difference and stoichiometry.
185.1003, 242.4438
185.5824, 240.2000
186.0645, 237.6858
186.5466, 234.8895
187.0287, 231.7608
187.5108, 228.2009
187.9930, 224.3640
188.4751, 220.2256
188.9572, 215.7306
189.4393, 211.1722
189.9214, 208.3150
190.4035, 208.6093
190.8857, 208.9954
191.3678, 209.1387
191.8499, 208.9850
192.3320, 208.5713
192.8141, 207.9533
193.2962, 207.0649
193.7784, 205.2848
194.2605, 202.0087
194.7426, 198.7225
195.2247, 195.6922
195.7068, 193.0111
196.1889, 190.9048
196.6711, 189.6048
197.1532, 188.9863
197.6353, 188.2533
198.1174, 186.6850
198.5995, 185.6482
199.0816, 186.1617
199.5638, 188.0427
200.0459, 190.0812
200.5280, 191.7223
201.0101, 192.9445
201.4922, 193.8722
201.9743, 194.8257
202.4565, 195.1731
202.9386, 194.1914
203.4207, 191.8526
203.9028, 189.1891
204.3849, 186.5390
204.8670, 183.9781
205.3492, 181.6011
205.8313, 179.3040
206.3134, 177.3574
206.7955, 176.0936
207.2776, 175.5314
207.7597, 175.5792
208.2419, 176.5057
208.7240, 177.9114
209.2061, 179.5749
209.6882, 181.5787
210.1703, 183.4973
210.6524, 184.6515
211.1346, 185.0462
211.6167, 184.5683
212.0988, 182.5581
212.5809, 180.0326
213.0630, 177.8710
213.5451, 176.4116
214.0273, 175.5803
214.5094, 175.3179
214.9915, 176.0882
215.4736, 176.5949
215.9557, 176.1219
216.4378, 175.4996
216.9200, 175.6442
217.4021, 176.9811
217.8842, 179.0553
218.3663, 180.5755
218.8484, 181.1015
219.3305, 181.6613
219.8127, 182.5113
220.2948, 183.4061
220.7769, 183.9729
221.2590, 184.0407
221.7411, 183.9169
222.2232, 184.5212
222.7054, 186.8678
223.1875, 188.7656
223.6696, 189.8088
224.1517, 190.4413
224.6338, 191.1035
225.1159, 191.9916
225.5980, 193.1224
226.0802, 194.5587
226.5623, 197.6800
227.0444, 199.4259
227.5265, 198.7774
228.0086, 196.8496
228.4907, 194.8619
228.9729, 193.2891
229.4550, 192.2466
229.9371, 192.1622
230.4192, 193.9342
230.9013, 195.2033
231.3834, 195.0121
231.8656, 194.2319
232.3477, 194.2968
232.8298, 195.8533
233.3119, 198.0896
233.7940, 199.1599
234.2761, 198.6840
234.7583, 198.2885
235.2404, 198.0656
235.7225, 198.2293
236.2046, 199.1627
236.6867, 201.0267
237.1688, 203.6536
237.6510, 207.0802
238.1331, 211.4780
238.6152, 215.4368
239.0973, 219.0986
239.5794, 221.9583
240.0615, 222.9032
240.5437, 221.5674
241.0258, 218.2943
241.5079, 213.2029
241.9900, 206.3680
242.4721, 199.2041
242.9542, 191.9176
243.4364, 184.7505
243.9185, 178.3142
244.4006, 172.7442
244.8827, 167.9681
245.3648, 163.8965
245.8469, 160.4765
246.3290, 157.6389
246.8112, 155.5130
247.2933, 153.9674
247.7754, 152.5027
248.2575, 150.8805
248.7396, 149.6900
249.2217, 149.5062
249.7039, 150.1077
250.1860, 150.7853
250.6681, 151.1532
251.1502, 151.2916
251.6323, 151.5492
252.1144, 152.1295
252.5966, 152.4959
253.0787, 152.1105
253.5608, 151.2916
254.0429, 150.7809
254.5250, 151.3800
255.0071, 152.6367
255.4893, 152.6698
255.9714, 150.7123
256.4535, 148.7163
256.9356, 147.4002
257.4177, 146.6565
257.8998, 146.3626
258.3820, 146.6260
258.8641, 147.2155
259.3462, 147.2579
259.8283, 146.3180
260.3104, 145.5388
260.7925, 145.6415
261.2747, 146.0067
261.7568, 145.6579
262.2389, 143.9039
262.7210, 141.5134
263.2031, 140.8530
263.6852, 143.1589
264.1674, 145.1467
264.6495, 145.6363
265.1316, 145.6170
265.6137, 146.2955
266.0958, 148.2391
266.5779, 150.6952
267.0601, 151.7795
267.5422, 150.5452
268.0243, 149.5800
268.5064, 149.7522
268.9885, 150.0721
269.4706, 149.6113
269.9528, 148.0529
270.4349, 145.8467
270.9170, 143.7748
271.3991, 141.6800
271.8812, 140.1086
272.3633, 139.6783
272.8455, 139.3262
273.3276, 138.1013
273.8097, 135.8343
274.2918, 133.2278
274.7739, 131.2944
275.2560, 130.0562
275.7382, 129.5485
276.2202, 130.2328
276.7024, 131.1362
277.1845, 131.4797
277.6666, 131.2566
278.1487, 131.1832
278.6308, 132.2401
279.1129, 134.9924
279.5951, 136.8923
280.0772, 137.9489
280.5593, 138.3374
281.0414, 137.8507
281.5235, 136.6836
282.0056, 135.4209
282.4878, 134.6417
282.9699, 134.4351
283.4520, 134.0393
283.9341, 133.2370
284.4162, 132.4833
284.8983, 131.9579
285.3805, 131.6402
285.8626, 131.4081
286.3447, 131.1504
286.8268, 130.8737
287.3089, 130.9409
287.7910, 131.8135
288.2732, 132.5082
288.7553, 132.6061
289.2374, 132.3259
289.7195, 132.1139
290.2016, 132.2488
290.6837, 132.6487
291.1659, 132.8580
291.6480, 132.5104
292.1301, 132.3984
292.6122, 132.6519
293.0943, 133.2185
293.5764, 134.0288
294.0586, 135.0570
294.5407, 136.2847
295.0228, 137.6694
295.5049, 139.5741
295.9870, 141.1899
296.4691, 142.2148
296.9513, 143.0554
297.4334, 144.3277
297.9155, 146.1957
298.3976, 148.0420
298.8797, 148.8190
299.3618, 147.9852
299.8440, 146.9254
300.3261, 145.2989
300.8082, 143.6713
301.2903, 142.6642
301.7724, 142.3257
302.2545, 141.9721
302.7367, 140.7392
303.2188, 138.2752
303.7009, 136.2820
304.1830, 135.2069
304.6651, 134.1840
305.1472, 132.5614
305.6294, 130.3995
306.1115, 128.2592
306.5936, 126.6106
307.0757, 125.4719
307.5578, 124.5438
308.0399, 124.0017
308.5221, 123.4551
309.0042, 122.5624
309.4863, 121.5057
309.9684, 120.8142
310.4505, 120.8711
310.9326, 121.5474
311.4148, 121.9411
311.8969, 122.1910
312.3790, 122.0592
312.8611, 120.9974
313.3432, 119.6030
313.8253, 118.8401
314.3075, 119.1645
314.7896, 120.2746
315.2717, 121.4468
315.7538, 123.3875
316.2359, 124.3589
316.7180, 123.2310
317.2001, 121.5004
317.6823, 121.0006
318.1644, 122.2291
318.6465, 124.0028
319.1286, 124.4697
319.6107, 122.5504
320.0928, 121.9602
320.5750, 123.9854
321.0571, 126.4093
321.5392, 127.3295
322.0213, 126.6510
322.5034, 125.7870
322.9855, 126.1618
323.4677, 127.9887
323.9498, 129.6658
324.4319, 131.5076
324.9140, 132.9463
325.3961, 133.3362
325.8782, 133.0109
326.3604, 132.9531
326.8425, 133.8525
327.3246, 135.6456
327.8067, 137.6610
328.2888, 140.0224
328.7709, 142.4343
329.2531, 144.7483
329.7352, 147.0720
330.2173, 149.6540
330.6994, 152.6316
331.1815, 155.7767
331.6636, 158.4910
332.1458, 159.9978
332.6279, 162.0335
333.1100, 164.9632
333.5921, 168.2765
334.0742, 171.3042
334.5563, 173.8940
335.0385, 176.7443
335.5206, 180.8711
336.0027, 186.7947
336.4848, 192.8363
336.9669, 199.5760
337.4490, 206.0269
337.9312, 211.8276
338.4133, 216.8197
338.8954, 220.6868
339.3775, 223.1042
339.8596, 224.0167
340.3417, 224.1570
340.8239, 223.1902
341.3060, 221.9206
341.7881, 220.2079
342.2702, 218.4205
342.7523, 217.2099
343.2344, 216.9870
343.7166, 217.6369
344.1987, 218.6116
344.6808, 219.7704
345.1629, 221.4856
345.6450, 223.9347
346.1271, 226.8940
346.6093, 230.2087
347.0914, 233.7825
347.5735, 237.5039
348.0556, 241.0635
348.5377, 244.1710
349.0198, 247.7019
349.5020, 251.0391
349.9841, 255.1716
350.4662, 261.0495
350.9483, 268.5668
351.4304, 276.7625
351.9125, 284.8383
352.3947, 293.0949
352.8768, 299.0965
353.3589, 303.2970
353.8410, 304.8323
354.3231, 303.6675
354.8052, 299.5442
355.2874, 291.6876
355.7695, 279.2102
356.2516, 262.9617
356.7337, 247.3680
357.2158, 231.4348
357.6979, 217.7635
358.1800, 206.8467
358.6621, 198.2062
359.1443, 191.6972
359.6264, 187.2129
360.1085, 183.9713
360.5906, 180.4576
361.0727, 176.2200
361.5548, 172.9312
362.0370, 171.7382
362.5191, 170.7442
363.0012, 168.6755
363.4833, 165.4777
363.9654, 162.0974
364.4475, 159.3917
364.9297, 157.3751
365.4118, 155.8474
365.8939, 155.8432
366.3760, 155.1560
366.8581, 152.4339
367.3402, 148.4217
367.8224, 144.6505
368.3045, 142.0350
368.7866, 140.2817
369.2687, 138.5336
369.7508, 136.7240
370.2329, 135.0862
370.7151, 133.8521
371.1972, 132.7384
371.6793, 131.4182
372.1614, 129.7880
372.6435, 128.1004
373.1256, 126.6242
373.6078, 125.3583
374.0899, 124.3396
374.5720, 123.4875
375.0541, 123.0095
375.5362, 123.1771
376.0183, 123.9286
376.5005, 124.7113
376.9826, 125.0870
377.4647, 125.1925
377.9468, 125.5802
378.4289, 126.4123
378.9110, 127.2367
379.3932, 127.7185
379.8753, 127.9802
380.3574, 128.2227
380.8395, 128.3644
381.3216, 128.6471
381.8037, 129.5587
382.2859, 131.1208
382.7680, 132.3389
383.2501, 132.6228
383.7322, 132.3925
384.2143, 132.3953
384.6964, 132.7337
385.1786, 132.9915
385.6607, 132.7692
386.1428, 132.2807
386.6249, 132.1571
387.1070, 132.6381
387.5891, 133.2496
388.0713, 133.4554
388.5534, 133.2947
389.0355, 132.9733
389.5176, 132.3286
389.9997, 131.6685
390.4818, 131.2710
390.9640, 131.1532
391.4461, 131.2603
391.9282, 131.5536
392.4103, 132.0573
392.8924, 132.8112
393.3745, 133.7236
393.8567, 134.9574
394.3388, 136.7912
394.8209, 138.9670
395.3030, 141.0244
395.7851, 142.8326
396.2672, 144.3111
396.7494, 145.2699
397.2315, 145.3140
397.7136, 145.7802
398.1957, 147.4415
398.6778, 149.0699
399.1599, 149.6872
399.6420, 149.1982
400.1241, 148.0175
400.6063, 146.4962
401.0884, 144.6308
401.5705, 142.3024
402.0526, 138.6720
402.5347, 135.5673
403.0168, 133.7327
403.4990, 132.7553
403.9811, 131.9978
404.4632, 131.1614
404.9453, 130.2850
405.4274, 129.4969
405.9095, 129.1621
406.3917, 128.2707
406.8738, 126.2196
407.3559, 124.0836
407.8380, 122.8057
408.3201, 122.3706
408.8022, 121.8696
409.2844, 120.1414
409.7665, 117.0260
410.2486, 115.4260
410.7307, 116.9594
411.2128, 118.3245
411.6949, 118.3631
412.1771, 117.6282
412.6592, 117.1531
413.1413, 117.5202
413.6234, 118.1708
414.1055, 117.7365
414.5876, 115.6924
415.0698, 114.1609
415.5519, 114.1699
416.0340, 114.5202
416.5161, 114.3216
416.9982, 113.5002
417.4803, 112.7851
417.9625, 112.9701
418.4446, 113.8899
418.9267, 114.3662
419.4088, 114.1195
419.8909, 113.7802
420.3730, 113.6991
420.8552, 113.8259
421.3373, 114.0826
421.8194, 114.4581
422.3015, 114.9350
422.7836, 115.6125
423.2657, 116.4830
423.7479, 117.0547
424.2300, 117.0531
424.7121, 116.7014
425.1942, 116.3164
425.6763, 115.8464
426.1584, 115.5995
426.6406, 116.0809
427.1227, 116.7665
427.6048, 116.5921
428.0869, 115.3214
428.5690, 114.0024
429.0511, 113.7079
429.5333, 114.4314
430.0154, 114.5338
430.4975, 113.5047
430.9796, 112.3279
431.4617, 111.4804
431.9438, 110.9265
432.4260, 110.4400
432.9081, 109.8722
433.3902, 109.4940
433.8723, 110.0122
434.3544, 112.6127
434.8365, 114.1228
435.3187, 113.7556
435.8008, 112.7143
436.2829, 111.8480
436.7650, 111.3237
437.2471, 111.0254
437.7292, 110.8899
438.2114, 110.9283
438.6935, 110.6602
439.1756, 109.7101
439.6577, 108.8673
440.1398, 108.3916
440.6219, 108.1055
441.1040, 107.8197
441.5862, 107.4548
442.0683, 106.9246
442.5504, 105.9288
443.0325, 104.0644
443.5146, 102.9743
443.9967, 103.6748
444.4789, 104.4536
444.9610, 104.3082
445.4431, 103.3882
445.9252, 102.5353
446.4073, 102.4487
446.8894, 102.8956
447.3716, 102.9274
447.8537, 102.3422
448.3358, 101.8454
448.8179, 101.8873
449.3000, 102.1186
449.7821, 102.0981
450.2643, 101.6529
450.7464, 101.3471
451.2285, 101.9029
451.7106, 103.1021
452.1927, 103.7890
452.6748, 103.6045
453.1570, 103.1247
453.6391, 103.0269
454.1212, 103.1899
454.6033, 102.9510
455.0854, 101.5080
455.5675, 100.0800
456.0497, 99.96893
456.5318, 100.9963
457.0139, 101.9182
457.4960, 102.0491
457.9781, 101.7385
458.4602, 102.0022
458.9424, 103.3137
459.4245, 104.1230
459.9066, 103.6880
460.3887, 102.8840
460.8708, 102.6454
461.3529, 103.0824
461.8351, 103.7146
462.3172, 104.1698
462.7993, 104.4618
463.2814, 104.0064
463.7635, 101.5595
464.2456, 99.84187
464.7278, 99.99796
465.2099, 101.1331
465.6920, 101.9944
466.1741, 102.0989
466.6562, 101.8580
467.1383, 101.9826
467.6205, 102.6356
468.1026, 103.1500
468.5847, 103.6927
469.0668, 103.9170
469.5489, 103.3627
470.0310, 102.3242
470.5132, 101.5699
470.9953, 101.6053
471.4774, 102.2056
471.9595, 102.9050
472.4416, 103.8280
472.9237, 104.3876
473.4059, 104.2391
473.8880, 103.6903
474.3701, 102.8535
474.8522, 101.7241
475.3343, 100.8392
475.8164, 100.6173
476.2986, 100.8963
476.7807, 101.4189
477.2628, 102.2564
477.7449, 102.7863
478.2270, 102.4630
478.7091, 101.4041
479.1913, 100.2312
479.6734, 98.47547
480.1555, 97.16690
480.6376, 97.09882
481.1197, 97.83727
481.6018, 98.52260
482.0839, 98.88502
482.5660, 99.00658
483.0482, 98.95528
483.5303, 98.60674
484.0124, 98.57707
484.4945, 99.20276
484.9766, 99.81066
485.4587, 100.0160
485.9409, 99.90813
486.4230, 99.75609
486.9051, 99.70737
487.3872, 99.73666
487.8693, 99.77133
488.3514, 99.80424
488.8336, 99.85844
489.3157, 99.81100
489.7978, 99.87801
490.2799, 100.2845
490.7620, 100.9774
491.2441, 101.6787
491.7263, 102.2249
492.2084, 102.5905
492.6905, 102.5819
493.1726, 101.9997
493.6547, 101.5260
494.1368, 101.4410
494.6190, 101.6091
495.1011, 102.0206
495.5832, 102.7293
496.0653, 103.2369
496.5474, 102.9155
497.0295, 102.0817
497.5117, 101.7894
497.9938, 102.3107
498.4759, 102.8634
498.9580, 102.6429
499.4401, 101.8602
499.9222, 101.6561
500.4044, 102.5424
500.8865, 103.5616
501.3686, 103.9352
501.8507, 104.1222
502.3328, 105.3357
502.8149, 108.0280
503.2971, 110.9742
503.7792, 112.3780
504.2613, 111.6873
504.7434, 111.4034
505.2255, 112.0637
505.7076, 112.5577
506.1898, 112.2628
506.6719, 111.4045
507.1540, 110.4548
507.6361, 109.6489
508.1182, 109.0175
508.6003, 108.7507
509.0825, 109.2427
509.5646, 109.0353
510.0467, 107.0382
510.5288, 105.1204
511.0109, 104.3944
511.4930, 104.6955
511.9752, 105.1456
512.4573, 105.2560
512.9394, 105.1136
513.4215, 104.9116
513.9036, 104.6520
514.3857, 104.2762
514.8679, 103.4004
515.3500, 102.6847
515.8321, 102.9462
516.3142, 104.2623
516.7963, 105.9858
517.2784, 108.2969
517.7606, 110.6461
518.2427, 112.2507
518.7248, 113.0544
519.2069, 113.4045
519.6890, 113.3994
520.1711, 113.1749
520.6533, 113.4248
521.1354, 114.6944
521.6175, 115.6380
522.0996, 116.3242
522.5817, 116.4169
523.0638, 115.2551
523.5460, 112.9271
524.0281, 110.4283
524.5102, 108.7036
524.9923, 107.7407
525.4744, 106.9921
525.9565, 106.8295
526.4387, 106.3943
526.9208, 105.1425
527.4029, 103.7372
527.8850, 103.0158
528.3671, 103.1513
528.8492, 103.3303
529.3314, 102.2546
529.8135, 100.1799
530.2956, 99.86516
530.7777, 102.2505
531.2598, 104.7663
531.7419, 105.6953
532.2241, 105.7196
532.7062, 105.8561
533.1883, 106.2169
533.6704, 106.8567
534.1525, 108.0411
534.6346, 109.5116
535.1168, 110.5879
535.5989, 111.0820
536.0810, 111.5408
536.5631, 112.5291
537.0452, 114.0817
537.5273, 115.5218
538.0095, 117.0208
538.4916, 118.2338
538.9737, 118.9236
539.4558, 119.2890
539.9379, 119.6436
540.4200, 120.0839
540.9022, 120.4438
541.3843, 120.4130
541.8664, 119.8387
542.3485, 119.7514
542.8306, 120.9003
543.3127, 121.7271
543.7948, 121.5574
544.2769, 120.8065
544.7590, 120.0163
545.2411, 119.3325
545.7233, 119.0116
546.2054, 119.5699
546.6875, 120.9388
547.1696, 122.1299
547.6517, 123.1423
548.1339, 123.6677
548.6160, 123.2055
549.0981, 122.0237
549.5802, 120.7811
550.0623, 119.1630
550.5444, 117.9841
551.0266, 117.7965
551.5087, 118.4391
551.9908, 119.7366
552.4729, 121.6693
552.9550, 123.5907
553.4371, 124.6341
553.9193, 124.5846
554.4014, 124.9812
554.8835, 126.5398
555.3656, 127.6905
555.8477, 127.7559
556.3298, 127.0933
556.8120, 126.2456
557.2941, 125.4126
557.7762, 124.4672
558.2583, 123.2641
558.7404, 121.8319
559.2225, 119.9231
559.7047, 117.0702
560.1868, 114.3628
560.6689, 112.1592
561.1510, 110.4532
561.6331, 109.2975
562.1152, 108.8810
562.5974, 108.5425
563.0795, 107.7586
563.5616, 106.5561
564.0437, 104.8343
564.5258, 102.3886
565.0079, 100.2663
565.4901, 99.55978
565.9722, 100.2259
566.4543, 100.5571
566.9364, 100.2837
567.4185, 99.98831
567.9006, 100.0300
568.3828, 100.1329
568.8649, 99.81525
569.3470, 98.99220
569.8291, 98.06927
570.3112, 97.47946
570.7933, 97.21484
571.2755, 97.41188
571.7576, 98.55661
572.2397, 99.56464
572.7218, 99.90452
573.2039, 100.1133
573.6860, 100.8583
574.1682, 102.2981
574.6503, 103.9083
575.1324, 105.2770
575.6145, 106.4115
576.0966, 107.4150
576.5787, 108.3838
577.0609, 108.8153
577.5430, 107.8528
578.0251, 106.3090
578.5072, 106.1603
578.9893, 108.0459
579.4714, 109.9718
579.9536, 111.2882
580.4357, 112.1716
580.9178, 112.5841
581.3999, 112.6598
581.8820, 113.1561
582.3641, 114.7248
582.8463, 117.1430
583.3284, 119.1106
583.8105, 120.1201
584.2926, 121.4206
584.7747, 123.0187
585.2568, 124.9957
585.7390, 127.5591
586.2211, 130.6061
586.7032, 133.7146
587.1853, 136.5843
587.6674, 139.3021
588.1495, 142.0857
588.6317, 144.9655
589.1138, 147.8254
589.5959, 151.1884
590.0780, 153.9556
590.5601, 154.6978
591.0422, 153.4561
591.5244, 152.0583
592.0065, 151.0275
592.4886, 150.1009
592.9707, 148.9663
593.4528, 147.7267
593.9349, 146.7921
594.4171, 146.3683
594.8992, 146.1662
595.3813, 145.6467
595.8634, 144.5595
596.3455, 143.9046
596.8276, 144.8535
597.3098, 144.9533
597.7919, 142.8741
598.2740, 139.3128
598.7561, 135.4650
599.2382, 131.8037
599.7203, 128.1163
600.2025, 123.8980
600.6846, 119.1657
601.1667, 115.0582
601.6488, 111.5696
602.1309, 108.9864
602.6130, 108.1702
603.0952, 108.3303
603.5773, 107.8673
604.0594, 106.1558
604.5415, 104.5988
605.0236, 104.0556
605.5057, 104.0614
605.9879, 103.9324
606.4700, 103.5543
606.9521, 103.1027
607.4342, 102.6859
607.9163, 102.3379
608.3984, 102.3242
608.8806, 102.9205
609.3627, 103.4859
609.8448, 104.1202
610.3269, 104.5894
610.8090, 104.6323
611.2911, 104.3040
611.7733, 103.9075
612.2554, 103.5605
612.7375, 103.3700
613.2196, 103.7172
613.7017, 104.6792
614.1838, 105.3933
614.6660, 105.6470
615.1481, 105.4920
615.6302, 104.6686
616.1123, 103.2437
616.5944, 102.6174
617.0765, 103.6370
617.5587, 105.0089
618.0408, 105.9844
618.5229, 106.6283
619.0050, 107.1875
619.4871, 107.7454
619.9692, 108.1213
620.4514, 107.9609
620.9335, 107.0825
621.4156, 107.0622
621.8977, 108.8570
622.3798, 110.3984
622.8619, 110.9559
623.3441, 111.0827
623.8262, 111.2844
624.3083, 111.6987
624.7904, 112.5661
625.2725, 114.2976
625.7546, 116.6138
626.2367, 118.8131
626.7188, 120.8811
627.2009, 122.5781
627.6830, 123.5223
628.1652, 124.2297
628.6473, 126.0395
629.1294, 129.3161
629.6115, 132.2741
630.0936, 134.4046
630.5757, 136.3534
631.0579, 138.4138
631.5400, 140.7095
632.0221, 143.4262
632.5042, 146.6474
632.9863, 150.2780
633.4684, 154.2972
633.9506, 158.9548
634.4327, 162.7984
634.9148, 165.0930
635.3969, 167.3688
635.8790, 170.7322
636.3611, 174.4963
636.8433, 177.3503
637.3254, 178.6656
637.8075, 179.9766
638.2896, 182.4752
638.7717, 185.7012
639.2538, 188.6154
639.7360, 191.0998
640.2181, 194.3391
640.7002, 199.3945
641.1823, 205.6568
641.6644, 210.6906
642.1465, 213.1688
642.6287, 216.1862
643.1108, 220.6711
643.5929, 224.9326
644.0750, 227.8017
644.5571, 229.4556
645.0392, 230.6763
645.5214, 231.8289
646.0035, 232.9680
646.4856, 234.1094
646.9677, 235.2547
647.4498, 236.7047
647.9319, 238.4524
648.4141, 240.6309
648.8962, 243.5845
649.3783, 247.0991
649.8604, 250.2338
650.3425, 251.9991
650.8246, 254.6194
651.3068, 259.0912
651.7889, 264.8238
652.2710, 271.3828
652.7531, 278.5162
653.2352, 285.6696
653.7173, 292.4386
654.1995, 298.8202
654.6816, 305.0010
655.1637, 311.4958
655.6458, 316.5063
656.1279, 320.1874
656.6100, 321.8297
657.0922, 320.8671
657.5743, 317.4210
658.0564, 311.9759
658.5385, 304.5025
659.0206, 295.3936
659.5027, 284.5517
659.9849, 272.3991
660.4670, 259.6570
660.9491, 246.4836
661.4312, 233.9126
661.9133, 222.8194
662.3954, 213.1471
662.8776, 204.3458
663.3597, 196.7396
663.8418, 189.6164
664.3239, 182.5424
664.8060, 176.1694
665.2881, 171.2707
665.7703, 167.6385
666.2524, 164.2898
666.7345, 160.5934
667.2166, 156.7992
667.6987, 153.5343
668.1808, 150.7672
668.6630, 147.1522
669.1451, 142.0679
669.6272, 136.8157
670.1093, 132.5411
670.5914, 129.2605
671.0735, 126.7610
671.5557, 126.1252
672.0378, 124.9396
672.5199, 121.5891
673.0020, 117.8010
673.4841, 115.7103
673.9662, 115.3663
674.4484, 115.1023
674.9305, 113.5962
675.4126, 111.2495
675.8947, 109.3501
676.3768, 107.9267
676.8589, 106.8400
677.3411, 106.1846
677.8232, 105.7274
678.3053, 105.3803
678.7874, 105.0824
679.2695, 104.5858
679.7516, 103.3870
680.2338, 102.5428
680.7159, 103.3075
681.1980, 104.5878
681.6801, 104.3337
682.1622, 102.3840
682.6443, 100.5939
683.1265, 100.5599
683.6086, 101.8450
684.0907, 102.2617
684.5728, 101.2328
685.0549, 100.5962
685.5370, 101.0228
686.0192, 101.5298
686.5013, 101.5611
686.9834, 101.2048
687.4655, 100.7789
687.9476, 100.2947
688.4297, 99.97295
688.9119, 100.0988
689.3940, 100.5226
689.8761, 100.8788
690.3582, 101.1084
690.8403, 101.4659
691.3224, 102.2554
691.8046, 103.2507
692.2867, 103.3383
692.7688, 101.3874
693.2509, 100.3583
693.7330, 101.1520
694.2151, 102.1189
694.6973, 102.2222
695.1794, 101.6976
695.6615, 101.2674
696.1436, 101.2068
696.6257, 101.4634
697.1078, 102.1443
697.5900, 103.1039
698.0721, 103.8703
698.5542, 104.3756
699.0363, 104.6014
699.5184, 104.4087
700.0005, 104.0154
700.4827, 104.2228
700.9648, 106.1597
701.4469, 106.8180
701.9290, 104.9502
702.4111, 102.9322
702.8932, 102.1908
703.3754, 102.3986
703.8575, 102.7058
704.3396, 102.7777
704.8217, 102.6445
705.3038, 102.1343
705.7859, 101.4051
706.2681, 101.3483
706.7502, 102.1425
707.2323, 102.8104
707.7144, 102.6884
708.1965, 102.1992
708.6786, 102.4166
709.1607, 103.8258
709.6428, 104.4842
710.1249, 103.5660
710.6071, 102.5630
711.0892, 102.2542
711.5713, 102.4708
712.0534, 102.8188
712.5355, 103.1692
713.0176, 103.6979
713.4998, 104.7171
713.9819, 106.1153
714.4640, 107.4211
714.9461, 108.7000
715.4282, 109.3604
715.9103, 108.9792
716.3925, 108.0297
716.8746, 107.0786
717.3567, 106.0538
717.8388, 105.6140
718.3209, 106.7448
718.8030, 107.4578
719.2852, 106.5368
719.7673, 104.7537
720.2494, 103.0467
720.7315, 101.7097
721.2136, 100.7693
721.6957, 100.4948
722.1779, 100.5211
722.6600, 99.30048
723.1421, 96.61583
723.6242, 94.57276
724.1063, 94.02757
724.5884, 93.93228
725.0706, 93.13109
725.5527, 91.68974
726.0348, 90.59676
726.5169, 90.00230
726.9990, 89.63682
727.4811, 89.44144
727.9633, 89.40865
728.4454, 89.75527
728.9275, 90.32120
729.4096, 90.39626
729.8917, 89.35935
730.3738, 87.89492
730.8560, 87.71178
731.3381, 88.86842
731.8202, 89.08309
732.3023, 87.58874
732.7844, 86.08161
733.2665, 85.84325
733.7487, 86.60439
734.2308, 87.28134
734.7129, 88.13279
735.1950, 88.41122
735.6771, 87.38376
736.1592, 86.21830
736.6414, 85.93541
737.1235, 86.28365
737.6056, 86.36544
738.0877, 85.76345
738.5698, 85.12476
739.0519, 85.58398
739.5341, 86.95752
740.0162, 87.49295
740.4983, 86.94995
740.9804, 86.26830
741.4625, 85.77908
741.9446, 85.52980
742.4268, 85.75626
742.9089, 86.66231
743.3910, 86.96781
743.8731, 85.76625
744.3552, 84.81082
744.8373, 85.20187
745.3195, 86.25159
745.8016, 87.04147
746.2837, 87.31821
746.7658, 87.25663
747.2479, 86.87045
747.7300, 86.33212
748.2122, 86.18705
748.6943, 86.44324
749.1764, 86.57150
749.6585, 86.44236
750.1406, 86.06310
750.6227, 85.21278
751.1049, 83.94376
751.5870, 83.74362
752.0691, 85.65845
752.5512, 87.13795
753.0333, 87.39688
753.5154, 87.31178
753.9976, 87.64794
754.4797, 88.32680
754.9618, 88.84952
755.4439, 88.98473
755.9260, 88.77718
756.4081, 88.09113
756.8903, 87.08672
757.3724, 86.36687
757.8545, 85.98975
758.3366, 86.21526
758.8187, 87.40438
759.3008, 89.03661
759.7830, 89.79695
760.2651, 89.26454
760.7472, 88.83959
761.2293, 88.61094
761.7114, 88.38542
762.1935, 87.88995
762.6757, 87.44167
763.1578, 87.56774
763.6399, 88.36217
764.1220, 89.14983
764.6041, 89.36166
765.0862, 89.32392
765.5684, 89.45454
766.0505, 89.77462
766.5326, 90.40466
767.0147, 91.40361
767.4968, 92.38015
767.9789, 92.85924
768.4611, 92.87424
768.9432, 93.13760
769.4253, 93.68180
769.9074, 94.42766
770.3895, 95.83807
770.8716, 97.02343
771.3538, 97.12516
771.8359, 96.47018
772.3180, 96.20158
772.8001, 96.92744
773.2822, 97.61535
773.7643, 97.58416
774.2465, 97.06745
774.7286, 96.28756
775.2107, 95.34032
775.6928, 94.47813
776.1749, 93.85142
776.6570, 93.26049
777.1392, 92.20104
777.6213, 90.51800
778.1034, 89.54621
778.5855, 89.72148
779.0676, 89.77550
779.5497, 88.93064
780.0319, 87.79794
780.5140, 87.19035
780.9961, 87.15250
781.4782, 87.13390
781.9603, 87.15282
782.4424, 86.99355
782.9246, 86.23878
783.4067, 85.35551
783.8888, 85.12892
784.3709, 85.62051
784.8530, 86.17337
785.3351, 86.28928
785.8173, 86.06494
786.2994, 85.66016
786.7815, 85.07564
787.2636, 84.62373
787.7457, 84.35713
788.2278, 84.25078
788.7100, 84.33101
789.1921, 84.54897
789.6742, 84.69626
790.1563, 84.53171
790.6384, 84.74405
791.1205, 86.00413
791.6026, 87.01246
792.0847, 86.78608
792.5668, 85.89804
793.0490, 85.41256
793.5311, 85.63462
794.0132, 85.83347
794.4953, 85.20512
794.9774, 84.25699
795.4595, 83.88017
795.9417, 84.03789
796.4238, 84.51366
796.9059, 85.26822
797.3880, 85.80661
797.8701, 85.49003
798.3522, 84.40178
798.8344, 83.98463
799.3165, 84.74087
799.7986, 85.19539
800.2807, 85.14137
800.7628, 84.68593
801.2449, 83.53342
801.7271, 82.03442
802.2092, 81.11529
802.6913, 81.08045
803.1734, 81.41869
803.6555, 82.13355
804.1376, 82.90508
804.6198, 83.39707
805.1019, 83.62994
805.5840, 83.82793
806.0661, 84.07912
806.5482, 84.06992
807.0303, 83.02254
807.5125, 81.17181
807.9946, 81.09068
808.4767, 83.19533
808.9588, 84.72453
809.4409, 84.67219
809.9230, 83.81614
810.4052, 82.89368
810.8873, 81.90701
811.3694, 81.06048
811.8515, 79.98772
812.3336, 79.54884
812.8157, 80.32202
813.2979, 81.45480
813.7800, 82.53989
814.2621, 83.36854
814.7442, 83.55541
815.2263, 82.83151
815.7084, 81.99312
816.1906, 81.97067
816.6727, 82.34329
817.1548, 82.05589
817.6369, 81.18267
818.1190, 80.83708
818.6011, 81.54177
819.0833, 82.69568
819.5654, 83.40861
820.0475, 83.65339
820.5296, 84.34572
821.0117, 86.01270
821.4938, 87.04471
821.9760, 86.47256
822.4581, 85.58398
822.9402, 85.45486
823.4223, 85.95072
823.9044, 86.38391
824.3865, 86.48360
824.8687, 86.71738
825.3508, 87.38904
825.8329, 88.18680
826.3150, 88.85903
826.7971, 89.37841
827.2792, 89.69057
827.7614, 89.76723
828.2435, 89.99709
828.7256, 91.14005
829.2077, 91.38966
829.6898, 93.47927
830.1719, 93.02420
830.6541, 93.18061
831.1362, 94.71149
831.6183, 96.59969
832.1004, 97.65182
832.5825, 97.87508
833.0646, 98.13060
833.5468, 98.80228
834.0289, 98.88850
834.5110, 97.94842
834.9931, 96.73178
835.4752, 95.80639
835.9573, 94.96562
836.4395, 93.49946
836.9216, 90.89881
837.4037, 88.77842
837.8858, 88.37406
838.3679, 88.56851
838.8500, 88.13387
839.3322, 87.29752
839.8143, 86.96922
840.2964, 87.41877
840.7785, 87.86967
841.2606, 87.37073
841.7427, 86.21557
842.2249, 85.52197
842.7070, 85.29597
843.1891, 85.55020
843.6712, 86.48576
844.1533, 87.22971
844.6354, 86.88138
845.1176, 85.74075
845.5997, 85.28921
846.0818, 86.02782
846.5639, 86.67713
847.0460, 87.22587
847.5281, 87.70301
848.0103, 88.16896
848.4924, 88.55456
848.9745, 88.67284
849.4566, 88.48852
849.9387, 88.49613
850.4208, 89.37342
850.9030, 90.17226
851.3851, 89.91332
851.8672, 88.97522
852.3493, 88.04048
852.8314, 87.27971
853.3135, 86.59187
853.7957, 85.90477
854.2778, 85.25872
854.7599, 84.66092
855.2420, 84.11858
855.7241, 84.30209
856.2062, 85.54388
856.6884, 86.17345
857.1705, 85.10099
857.6526, 83.11089
858.1347, 81.54295
858.6168, 80.32792
859.0989, 79.88560
859.5811, 80.83816
860.0632, 81.73543
860.5453, 82.54855
861.0274, 82.94402
861.5095, 82.21935
861.9916, 80.72664
862.4738, 80.06595
862.9559, 81.35264
863.4380, 82.50704
863.9201, 81.77428
864.4022, 80.44157
864.8843, 80.07738
865.3665, 80.58837
865.8486, 81.23233
866.3307, 81.68403
866.8128, 81.96098
867.2949, 82.07093
867.7770, 82.02242
868.2592, 81.79459
868.7413, 81.38394
869.2234, 81.09898
869.7055, 81.04280
870.1876, 81.07931
870.6697, 81.16100
871.1519, 81.20576
871.6340, 80.69231
872.1161, 78.89058
872.5981, 77.93328
873.0803, 78.68798
873.5624, 79.47424
874.0445, 79.69492
874.5266, 79.47820
875.0087, 78.91428
875.4908, 77.98671
875.9730, 77.29179
876.4551, 77.19614
876.9372, 77.22018
877.4193, 77.15446
877.9014, 76.98182
878.3835, 76.67331
878.8657, 76.24635
879.3478, 75.70284
879.8299, 74.95877
880.3120, 74.44386
880.7941, 74.93288
881.2762, 76.12617
881.7584, 77.14466
882.2405, 77.90418
882.7226, 78.28225
883.2047, 78.18929
883.6868, 77.97102
884.1689, 78.20144
884.6511, 78.83926
885.1332, 78.34534
885.6153, 76.04171
886.0974, 74.49006
886.5795, 74.44237
887.0616, 74.95855
887.5438, 75.82338
888.0259, 76.66399
888.5080, 76.18279
888.9901, 73.15712
889.4722, 71.68172
889.9543, 73.57270
890.4365, 75.80029
890.9186, 77.00053
891.4007, 77.44335
891.8828, 77.53352
892.3649, 77.38398
892.8470, 77.06210
893.3292, 76.35694
893.8113, 75.81068
894.2934, 76.08416
894.7755, 76.81944
895.2576, 77.54544
895.7397, 78.11452
896.2219, 78.22285
896.7040, 77.69495
897.1861, 77.05676
897.6682, 77.23495
898.1503, 78.07898
898.6324, 78.19710
899.1146, 77.50186
899.5967, 77.49099
900.0788, 78.82160
900.5609, 80.24422
901.0430, 80.48326
901.5251, 79.75526
902.0073, 79.45597
902.4894, 80.16408
902.9715, 80.08798
903.4536, 77.95362
903.9357, 76.41452
904.4178, 77.06328
904.9000, 78.77449
905.3821, 80.21856
905.8642, 81.30709
906.3463, 81.60990
906.8284, 80.16573
907.3105, 78.94348
907.7927, 79.34920
908.2748, 80.07402
908.7569, 79.31923
909.2390, 77.56350
909.7211, 76.90809
910.2032, 78.43044
910.6854, 80.38968
911.1675, 81.24411
911.6496, 81.47242
912.1317, 81.67390
912.6138, 81.95630
913.0959, 82.74898
913.5781, 84.09820
914.0602, 84.89281
914.5423, 83.89959
915.0244, 81.89596
915.5065, 81.35758
915.9886, 82.29825
916.4708, 83.04475
916.9529, 83.48080
917.4350, 83.12739
917.9171, 81.38489
918.3992, 79.32993
918.8813, 79.01570
919.3635, 80.82092
919.8456, 81.41313
920.3277, 80.01954
920.8098, 78.68379
921.2919, 77.68508
921.7740, 77.02128
922.2562, 76.79701
922.7383, 76.91171
923.2204, 77.09041
923.7025, 77.36128
924.1846, 77.53801
924.6667, 77.58669
925.1489, 77.51316
925.6310, 77.32227
926.1131, 77.01006
926.5952, 76.45982
927.0773, 75.73074
927.5594, 75.22834
928.0416, 75.22594
928.5237, 75.45720
929.0058, 75.85831
929.4879, 76.23986
929.9700, 76.15307
930.4521, 75.73988
930.9343, 75.67770
931.4164, 76.24023
931.8985, 76.91591
932.3806, 77.04832
932.8627, 76.83941
933.3448, 76.99722
933.8270, 77.48036
934.3091, 77.89638
934.7912, 78.17818
935.2733, 77.94532
935.7554, 76.74458
936.2375, 75.31453
936.7197, 75.67656
937.2018, 78.37395
937.6839, 79.63771
938.1660, 78.81126
938.6481, 78.25459
939.1302, 79.08731
939.6124, 80.05313
940.0945, 79.58226
940.5766, 77.92067
941.0587, 77.40569
941.5408, 79.55659
942.0229, 80.48139
942.5051, 78.90701
942.9872, 77.26942
943.4693, 76.82188
943.9514, 76.99413
944.4335, 77.02028
944.9156, 76.79587
945.3978, 76.43787
945.8799, 75.47463
946.3620, 75.01170
946.8441, 76.28440
947.3262, 77.82865
947.8083, 78.08501
948.2905, 77.28088
948.7726, 76.31082
949.2547, 75.49651
949.7368, 75.06458
950.2189, 75.52110
950.7010, 76.22996
951.1832, 76.21689
951.6653, 75.78143
952.1474, 75.75597
952.6295, 76.22341
953.1116, 76.57324
953.5938, 76.40007
954.0759, 75.99815
954.5580, 75.69426
955.0400, 75.57144
955.5222, 76.30421
956.0043, 77.88512
956.4864, 78.95792
956.9685, 79.05204
957.4506, 78.81248
957.9327, 78.83852
958.4149, 79.08333
958.8970, 79.45878
959.3791, 80.14897
959.8612, 79.92849
960.3433, 78.29370
960.8254, 76.86703
961.3076, 76.41941
961.7897, 76.54736
962.2718, 76.82566
962.7539, 77.26530
963.2360, 77.27668
963.7181, 76.65174
964.2003, 75.91423
964.6824, 74.90989
965.1645, 74.02235
965.6466, 73.31277
966.1287, 72.90643
966.6108, 73.20554
967.0930, 74.36917
967.5751, 74.88600
968.0572, 73.84238
968.5393, 72.84658
969.0214, 72.84309
969.5035, 72.91508
969.9857, 72.07595
970.4678, 70.59515
970.9499, 69.30375
971.4320, 68.43913
971.9141, 67.97261
972.3962, 68.00921
972.8784, 68.31884
973.3605, 68.94022
973.8426, 69.57864
974.3247, 69.67574
974.8068, 69.29107
975.2889, 69.10405
975.7711, 69.55753
976.2532, 69.94717
976.7353, 69.25679
977.2174, 68.07919
977.6995, 67.44839
978.1816, 67.32722
978.6638, 67.50608
979.1459, 67.87173
979.6280, 68.01168
980.1101, 67.52747
980.5922, 66.82781
981.0743, 66.81470
981.5565, 67.37879
982.0386, 67.99972
982.5207, 68.61878
983.0028, 68.59887
983.4849, 67.64503
983.9670, 66.39793
984.4492, 65.45652
984.9313, 64.91827
985.4134, 65.49413
985.8955, 67.45243
986.3776, 68.37730
986.8597, 67.75952
987.3419, 67.11888
987.8240, 67.17388
988.3061, 67.62253
988.7882, 68.12969
989.2703, 68.69051
989.7524, 68.64455
990.2346, 67.38554
990.7167, 66.91389
991.1988, 68.18086
991.6809, 69.27075
992.1630, 68.89026
992.6451, 67.76219
993.1273, 67.18350
993.6094, 67.24958
994.0915, 67.16844
994.5736, 66.18134
995.0557, 66.08952
995.5378, 68.14590
996.0200, 70.31025
996.5021, 71.21960
996.9842, 71.24673
997.4663, 71.24158
997.9484, 71.35078
998.4305, 71.15067
998.9127, 70.26619
999.3948, 69.38866
999.8769, 68.54395
1000.359, 68.06443
1000.841, 68.56779
1001.323, 69.64867
1001.805, 70.26946
1002.287, 70.11687
1002.770, 69.61245
1003.252, 68.37965
1003.734, 67.50580
1004.216, 68.14647
1004.698, 69.40306
1005.180, 70.11282
1005.662, 70.22697
1006.144, 70.22621
1006.627, 70.28548
1007.109, 70.51820
1007.591, 71.30786
1008.073, 72.08018
1008.555, 72.01124
1009.037, 71.45692
1009.519, 71.06919
1010.001, 70.99913
1010.483, 71.20267
1010.966, 71.67293
1011.448, 72.27428
1011.930, 72.78565
1012.412, 73.34509
1012.894, 74.51785
1013.376, 75.97533
1013.858, 76.46688
1014.340, 75.81920
1014.823, 75.09086
1015.305, 75.00236
1015.787, 75.34766
1016.269, 75.88921
1016.751, 76.56962
1017.233, 77.12006
1017.715, 77.56330
1018.197, 78.22358
1018.679, 79.18459
1019.162, 80.04942
1019.644, 80.45406
1020.126, 80.69553
1020.608, 81.63787
1021.090, 81.97481
1021.572, 82.32020
1022.054, 83.25066
1022.536, 83.21346
1023.018, 84.16090
1023.501, 85.37981
1023.983, 86.24941
1024.465, 86.87465
1024.947, 87.52956
1025.429, 88.19031
1025.911, 89.24486
1026.393, 90.86739
1026.875, 92.02329
1027.358, 92.32131
1027.840, 92.12038
1028.322, 91.65852
1028.804, 91.07456
1029.286, 90.95525
1029.768, 91.35123
1030.250, 92.08151
1030.732, 93.42078
1031.214, 94.31389
1031.697, 94.30463
1032.179, 93.82298
1032.661, 93.09720
1033.143, 92.30791
1033.625, 92.45638
1034.107, 94.23861
1034.589, 95.20272
1035.071, 95.11930
1035.553, 94.55816
1036.036, 93.18188
1036.518, 92.02947
1037.000, 92.38400
1037.482, 93.93273
1037.964, 94.83784
1038.446, 94.56774
1038.928, 94.69070
1039.410, 95.48792
1039.893, 96.29693
1040.375, 97.18440
1040.857, 97.75890
1041.339, 97.41335
1041.821, 96.35548
1042.303, 95.70748
1042.785, 95.41616
1043.267, 95.67237
1043.750, 97.38721
1044.232, 98.52546
1044.714, 97.71573
1045.196, 96.50966
1045.678, 96.59251
1046.160, 97.67007
1046.642, 98.12962
1047.124, 97.51647
1047.606, 96.97404
1048.089, 96.66134
1048.571, 96.43020
1049.053, 96.29478
1049.535, 96.15440
1050.017, 95.82317
1050.499, 95.80015
1050.981, 95.25809
1051.463, 95.66495
1051.945, 95.87550
1052.428, 95.88725
1052.910, 95.48769
1053.392, 94.41954
1053.874, 93.02241
1054.356, 91.30827
1054.838, 89.56601
1055.320, 88.74100
1055.802, 89.37276
1056.285, 89.69798
1056.767, 88.97874
1057.249, 88.12590
1057.731, 87.55386
1058.213, 87.08595
1058.695, 86.37986
1059.177, 85.61169
1059.659, 85.43613
1060.141, 86.20030
1060.624, 86.61077
1061.106, 85.99045
1061.588, 85.18360
1062.070, 84.22120
1062.552, 83.59984
1063.034, 84.16603
1063.516, 85.42290
1063.998, 85.93836
1064.480, 85.26557
1064.963, 84.70230
1065.445, 84.86739
1065.927, 85.14281
1066.409, 85.39639
1066.891, 85.44785
1067.373, 84.88238
1067.855, 84.03791
1068.337, 83.65510
1068.820, 83.91293
1069.302, 84.59621
1069.784, 86.14590
1070.266, 87.43627
1070.748, 87.81071
1071.230, 87.72060
1071.712, 87.31743
1072.194, 86.88448
1072.677, 86.97508
1073.159, 87.69376
1073.641, 88.24902
1074.123, 88.02526
1074.605, 87.90154
1075.087, 88.55888
1075.569, 89.29573
1076.051, 89.59941
1076.533, 89.47947
1077.016, 88.90522
1077.498, 87.94039
1077.980, 87.26006
1078.462, 87.20920
1078.944, 87.41276
1079.426, 88.02100
1079.908, 88.48759
1080.390, 88.25354
1080.872, 87.63351
1081.354, 86.90249
1081.837, 86.25656
1082.319, 86.50750
1082.801, 88.67075
1083.283, 90.39155
1083.765, 90.53996
1084.247, 89.87624
1084.729, 88.31587
1085.211, 86.68282
1085.694, 86.15902
1086.176, 86.64781
1086.658, 86.97079
1087.140, 86.77339
1087.622, 86.27906
1088.104, 85.22433
1088.586, 84.29782
1089.068, 84.07951
1089.551, 84.13216
1090.033, 83.76482
1090.515, 83.17606
1090.997, 83.42471
1091.479, 85.19023
1091.961, 85.97517
1092.443, 83.87399
1092.925, 81.73244
1093.407, 81.08113
1093.890, 81.06576
1094.372, 80.98853
1094.854, 80.76501
1095.336, 80.36924
1095.818, 79.76077
1096.300, 79.34956
1096.782, 79.71737
1097.264, 79.71034
1097.746, 78.07944
1098.229, 76.64915
1098.711, 77.50422
1099.193, 79.36541
1099.675, 79.52205
1100.157, 77.59769
1100.639, 76.40370
1101.121, 77.13827
1101.603, 77.96996
1102.086, 78.73233
1102.568, 79.09589
1103.050, 78.60239
1103.532, 77.73257
1104.014, 77.13668
1104.496, 76.84290
1104.978, 76.52847
1105.460, 75.79454
1105.943, 75.62341
1106.425, 76.50320
1106.907, 77.56829
1107.389, 78.68094
1107.871, 79.60571
1108.353, 80.03429
1108.835, 80.05355
1109.317, 80.11766
1109.799, 80.47514
1110.281, 80.34260
1110.764, 78.76080
1111.246, 77.88409
1111.728, 78.82066
1112.210, 80.23221
1112.692, 81.27895
1113.174, 81.95161
1113.656, 82.16314
1114.138, 81.70464
1114.621, 81.72999
1115.103, 82.41409
1115.585, 83.30286
1116.067, 84.42444
1116.549, 85.60332
1117.031, 86.72974
1117.513, 87.86703
1117.995, 89.23361
1118.478, 90.83501
1118.960, 91.61736
1119.442, 90.87990
1119.924, 91.02990
1120.406, 92.65926
1120.888, 94.42293
1121.370, 95.86584
1121.852, 96.99619
1122.334, 97.77702
1122.817, 98.25941
1123.299, 98.70690
1123.781, 99.09764
1124.263, 99.58633
1124.745, 100.2708
1125.227, 100.6362
1125.709, 100.3590
1126.191, 100.2712
1126.673, 101.1271
1127.156, 102.5419
1127.638, 103.6657
1128.120, 104.5042
1128.602, 104.6168
1129.084, 103.9178
1129.566, 103.4245
1130.048, 103.3911
1130.530, 103.1110
1131.013, 102.1650
1131.495, 100.8075
1131.977, 99.37080
1132.459, 97.88226
1132.941, 96.28542
1133.423, 94.64376
1133.905, 94.29747
1134.387, 95.30549
1134.870, 95.68002
1135.352, 94.63733
1135.834, 93.09499
1136.316, 91.85867
1136.798, 90.90980
1137.280, 90.32536
1137.762, 89.97930
1138.244, 89.28224
1138.726, 88.36343
1139.208, 88.21071
1139.691, 88.89134
1140.173, 88.92256
1140.655, 87.30026
1141.137, 85.30938
1141.619, 84.63424
1142.101, 84.65617
1142.583, 84.28657
1143.065, 83.73470
1143.548, 83.46191
1144.030, 83.53223
1144.512, 84.01549
1144.994, 84.90011
1145.476, 85.41404
1145.958, 84.61711
1146.440, 83.58256
1146.922, 83.78999
1147.405, 84.09464
1147.887, 82.49626
1148.369, 80.01762
1148.851, 79.13924
1149.333, 80.09280
1149.815, 80.79548
1150.297, 80.06218
1150.779, 79.46575
1151.261, 80.34618
1151.744, 81.24442
1152.226, 81.00703
1152.708, 80.23573
1153.190, 79.33324
1153.672, 78.64993
1154.154, 79.10817
1154.636, 81.18049
1155.118, 82.49117
1155.600, 81.97592
1156.083, 81.09220
1156.565, 79.98547
1157.047, 79.04713
1157.529, 78.61506
1158.011, 78.48047
1158.493, 78.36279
1158.975, 78.23903
1159.457, 77.94571
1159.940, 77.49352
1160.422, 76.82092
1160.904, 75.33292
1161.386, 74.49821
1161.868, 75.17529
1162.350, 76.29797
1162.832, 77.06948
1163.314, 77.45067
1163.796, 77.24694
1164.279, 76.29832
1164.761, 75.65089
1165.243, 75.32746
1165.725, 75.25595
1166.207, 75.47749
1166.689, 75.77913
1167.171, 76.07513
1167.653, 76.26539
1168.135, 76.15255
1168.618, 75.84108
1169.100, 75.98496
1169.582, 76.57534
1170.064, 77.08545
1170.546, 77.46162
1171.028, 77.18942
1171.510, 76.09693
1171.992, 74.90301
1172.474, 74.13747
1172.957, 73.85285
1173.439, 74.35668
1173.921, 75.34666
1174.403, 75.85186
1174.885, 76.05260
1175.367, 76.80850
1175.849, 78.04383
1176.331, 78.69234
1176.814, 78.29869
1177.296, 77.35884
1177.778, 75.97011
1178.260, 74.72173
1178.742, 74.51537
1179.224, 74.71053
1179.706, 74.38014
1180.188, 73.76345
1180.671, 73.50839
1181.153, 73.68682
1181.635, 73.92335
1182.117, 74.10725
1182.599, 74.14500
1183.081, 73.73451
1183.563, 73.46069
1184.045, 73.79337
1184.527, 74.35076
1185.010, 74.83961
1185.492, 75.21275
1185.974, 75.44180
1186.456, 75.52018
1186.938, 75.53336
1187.420, 75.65334
1187.902, 75.46774
1188.384, 74.34360
1188.866, 73.61039
1189.349, 74.16837
1189.831, 75.06665
1190.313, 75.31947
1190.795, 75.08939
1191.277, 75.04482
1191.759, 75.29488
1192.241, 75.19730
1192.723, 74.58237
1193.206, 74.25861
1193.688, 74.47950
1194.170, 74.64849
1194.652, 74.38992
1195.134, 74.02279
1195.616, 74.06159
1196.098, 74.31443
1196.580, 73.71925
1197.063, 73.76795
1197.545, 73.85706
1198.027, 73.32021
1198.509, 73.94918
1198.991, 73.77850
1199.473, 73.43377
1199.955, 73.34838
1200.437, 73.27126
1200.919, 72.67443
1201.401, 72.00236
1201.884, 72.26096
1202.366, 72.91895
1202.848, 72.95727
1203.330, 72.37886
1203.812, 71.46813
1204.294, 70.39103
1204.776, 69.73872
1205.258, 69.93112
1205.741, 70.49306
1206.223, 71.79630
1206.705, 72.62812
1207.187, 71.39574
1207.669, 69.63161
1208.151, 69.29879
1208.633, 70.15285
1209.115, 70.88838
1209.598, 71.36872
1210.080, 71.27682
1210.562, 69.98079
1211.044, 68.97453
1211.526, 68.68636
1212.008, 68.58641
1212.490, 68.48387
1212.972, 68.40247
1213.454, 68.42614
1213.937, 68.48400
1214.419, 68.17781
1214.901, 67.36547
1215.383, 66.90053
1215.865, 66.79782
1216.347, 67.05315
1216.829, 67.72563
1217.311, 68.21046
1217.793, 68.13887
1218.276, 67.81631
1218.758, 67.57752
1219.240, 67.50023
1219.722, 68.09223
1220.204, 67.61079
1220.686, 68.67402
1221.168, 67.40944
1221.650, 66.85701
1222.133, 67.28764
1222.615, 67.55192
1223.097, 66.97267
1223.579, 66.35429
1224.061, 66.53554
1224.543, 66.90853
1225.025, 66.75077
1225.507, 67.20898
1225.990, 67.01328
1226.472, 67.85326
1226.954, 68.47636
1227.436, 68.76096
1227.918, 68.76183
1228.400, 68.30795
1228.882, 67.96758
1229.364, 68.09132
1229.846, 68.06477
1230.328, 67.46993
1230.811, 66.81857
1231.293, 66.52992
1231.775, 66.42365
1232.257, 66.11966
1232.739, 65.62206
1233.221, 65.54111
1233.703, 65.93778
1234.185, 66.54704
1234.668, 67.43286
1235.150, 68.01180
1235.632, 68.06618
1236.114, 68.02019
1236.596, 68.22024
1237.078, 68.43111
1237.560, 68.20358
1238.042, 67.66845
1238.525, 67.03337
1239.007, 66.50361
1239.489, 67.10717
1239.971, 68.47057
1240.453, 68.73000
1240.935, 67.48887
1241.417, 66.37223
1241.899, 66.38992
1242.381, 66.80478
1242.864, 67.29607
1243.346, 67.64410
1243.828, 67.61238
1244.310, 67.38016
1244.792, 67.12328
1245.274, 66.84755
1245.756, 66.44766
1246.238, 65.91438
1246.720, 65.68713
1247.203, 65.87270
1247.685, 66.31446
1248.167, 67.26894
1248.649, 68.08565
1249.131, 68.81451
1249.613, 68.86453
1250.095, 67.38900
1250.577, 65.52525
1251.059, 65.67628
1251.542, 67.60182
1252.024, 68.28665
1252.506, 67.74346
1252.988, 67.58506
1253.470, 67.93291
1253.952, 68.07497
1254.434, 67.79906
1254.916, 67.40795
1255.399, 67.08531
1255.881, 66.99129
1256.363, 67.62125
1256.845, 68.34945
1257.327, 67.96723
1257.809, 67.26499
1258.291, 67.75771
1258.773, 68.86762
1259.255, 68.95260
1259.738, 67.84506
1260.220, 66.91919
1260.702, 66.72422
1261.184, 66.57613
1261.666, 66.12679
1262.148, 65.85533
1262.630, 66.08413
1263.112, 66.41779
1263.594, 66.52010
1264.077, 66.59611
1264.559, 67.01247
1265.041, 67.69482
1265.523, 67.87865
1266.005, 67.31082
1266.487, 68.04903
1266.969, 70.42163
1267.451, 71.25127
1267.934, 69.74939
1268.416, 67.88445
1268.898, 66.71609
1269.380, 66.36352
1269.862, 67.18414
1270.344, 68.52468
1270.826, 69.32015
1271.308, 69.69421
1271.791, 70.00286
1272.273, 70.03407
1272.755, 68.84007
1273.237, 66.84254
1273.719, 66.17326
1274.201, 67.64889
1274.683, 68.78226
1275.165, 67.91466
1275.647, 67.28407
1276.130, 68.24100
1276.612, 69.07648
1277.094, 68.23615
1277.576, 69.34593
1278.058, 68.29511
1278.540, 70.27580
1279.022, 69.98299
1279.504, 70.30103
1279.986, 70.40714
1280.469, 68.94225
1280.951, 69.60717
1281.433, 67.90088
1281.915, 67.28226
1282.397, 69.01055
1282.879, 70.60472
1283.361, 70.07619
1283.843, 68.65079
1284.326, 67.78086
1284.808, 67.46163
##END=



