##NAMES=Clinoptilolite-K
##RRUFFID=R110201
##IDEAL CHEMISTRY=K_6_(Si_30_Al_6_)O_72_&#183;20H_2_O
##LOCALITY=Conejo Volcanics, Agoura, Santa Monica Mountains, Los Angeles County, California, USA
##OWNER=RRUFF
##SOURCE=Donald Doell
##DESCRIPTION=Colorless tabular crystals associated with ferrierite-K R110200
##STATUS=The identification of this mineral has been confirmed only by single crystal X-ray diffraction.
##URL=rruff.info/R110201
229.4889, 483.9554
229.9710, 485.1770
230.4531, 485.8334
230.9353, 485.6813
231.4174, 485.2738
231.8995, 484.8437
232.3816, 484.4710
232.8637, 484.4281
233.3458, 484.9593
233.8280, 485.9313
234.3101, 486.9403
234.7922, 487.9951
235.2743, 489.0428
235.7564, 490.0150
236.2385, 490.9555
236.7207, 491.9707
237.2028, 493.1840
237.6849, 494.5184
238.1670, 495.6949
238.6491, 496.8350
239.1312, 497.5820
239.6134, 497.6704
240.0955, 497.3528
240.5776, 496.9924
241.0597, 496.6511
241.5418, 496.4762
242.0239, 497.2898
242.5061, 500.1502
242.9882, 502.5673
243.4703, 503.6654
243.9524, 503.9385
244.4345, 504.0354
244.9166, 504.2420
245.3988, 504.6553
245.8809, 505.7943
246.3630, 508.6372
246.8451, 510.9421
247.3272, 512.1199
247.8093, 512.5685
248.2915, 512.7330
248.7736, 512.8311
249.2557, 512.9203
249.7378, 513.2482
250.2199, 514.2891
250.7020, 514.9695
251.1842, 514.7814
251.6663, 514.2873
252.1484, 514.2080
252.6305, 514.9000
253.1126, 516.0766
253.5947, 516.8508
254.0769, 516.9711
254.5590, 516.9289
255.0411, 516.5860
255.5232, 516.1663
256.0053, 515.8989
256.4874, 515.8823
256.9695, 516.0668
257.4517, 516.3328
257.9338, 516.9688
258.4159, 517.3249
258.8980, 517.2206
259.3801, 516.9091
259.8622, 516.5985
260.3444, 516.3661
260.8265, 516.2638
261.3086, 516.4142
261.7907, 517.3644
262.2728, 517.6484
262.7549, 516.7043
263.2371, 515.3477
263.7192, 514.3797
264.2013, 514.0124
264.6834, 513.9503
265.1655, 513.7650
265.6476, 513.3774
266.1298, 513.0578
266.6119, 513.0259
267.0940, 512.9476
267.5761, 512.4740
268.0582, 511.5445
268.5403, 510.4144
269.0225, 509.3566
269.5046, 508.3872
269.9867, 507.4732
270.4688, 506.3705
270.9509, 505.4818
271.4330, 505.3667
271.9152, 506.0406
272.3973, 506.6936
272.8794, 506.5016
273.3615, 505.3803
273.8436, 504.5115
274.3257, 503.9369
274.8079, 503.5970
275.2900, 503.5669
275.7721, 503.8160
276.2542, 503.9897
276.7363, 503.7204
277.2184, 503.1077
277.7006, 502.9551
278.1827, 503.8315
278.6648, 504.7161
279.1469, 504.8599
279.6290, 504.3159
280.1111, 503.6306
280.5933, 503.2416
281.0754, 502.8778
281.5575, 501.7379
282.0396, 499.1595
282.5217, 496.6242
283.0038, 495.0625
283.4860, 494.3536
283.9681, 493.9177
284.4502, 493.7405
284.9323, 493.4547
285.4144, 492.3109
285.8965, 489.9713
286.3787, 487.6437
286.8608, 485.8914
287.3429, 484.6758
287.8250, 483.8603
288.3071, 483.4832
288.7892, 483.4012
289.2714, 483.5466
289.7535, 484.0175
290.2356, 484.0151
290.7177, 482.8206
291.1998, 480.8575
291.6819, 479.2149
292.1641, 478.1216
292.6462, 477.4292
293.1283, 476.9674
293.6104, 476.7182
294.0925, 476.7504
294.5746, 477.9348
295.0568, 479.2804
295.5389, 478.3441
296.0210, 474.1137
296.5031, 469.7906
296.9852, 468.5157
297.4673, 469.3885
297.9495, 470.1822
298.4316, 470.0237
298.9137, 469.4361
299.3958, 469.2948
299.8779, 469.7468
300.3600, 470.0161
300.8422, 469.4189
301.3243, 468.3031
301.8064, 467.2147
302.2885, 466.1274
302.7706, 465.2419
303.2527, 464.8949
303.7349, 465.1258
304.2170, 465.3111
304.6991, 465.0236
305.1812, 464.5911
305.6633, 464.5181
306.1454, 465.0248
306.6276, 465.5000
307.1097, 465.2698
307.5918, 464.3854
308.0739, 463.7382
308.5560, 463.7392
309.0381, 464.0157
309.5203, 464.0916
310.0024, 463.9277
310.4845, 463.8481
310.9666, 464.0306
311.4487, 464.4687
311.9308, 465.2078
312.4130, 466.4963
312.8951, 467.7220
313.3772, 468.3965
313.8593, 468.5548
314.3414, 468.3175
314.8235, 467.2858
315.3057, 465.9180
315.7878, 465.5679
316.2699, 465.3380
316.7520, 467.9735
317.2341, 466.0372
317.7162, 468.0190
318.1984, 469.2520
318.6805, 469.7766
319.1626, 467.4706
319.6447, 468.8197
320.1268, 468.7039
320.6089, 468.5282
321.0911, 470.3917
321.5732, 468.4974
322.0553, 470.3285
322.5374, 470.6725
323.0195, 471.6971
323.5016, 471.2479
323.9838, 471.2540
324.4659, 471.3688
324.9480, 471.4042
325.4301, 470.7308
325.9122, 469.8510
326.3943, 468.6870
326.8765, 467.7933
327.3586, 467.8492
327.8407, 468.6377
328.3228, 468.8693
328.8049, 467.9090
329.2870, 466.7809
329.7692, 466.5680
330.2513, 467.1953
330.7334, 467.9389
331.2155, 468.5760
331.6976, 469.0682
332.1797, 469.3123
332.6619, 469.2726
333.1440, 469.0517
333.6261, 468.5220
334.1082, 467.8534
334.5903, 467.4941
335.0724, 467.7315
335.5546, 468.2765
336.0367, 468.8612
336.5188, 469.5075
337.0009, 469.9157
337.4830, 469.7833
337.9651, 469.3253
338.4473, 468.8866
338.9294, 468.2359
339.4115, 468.0368
339.8936, 469.2520
340.3758, 471.6503
340.8579, 473.4101
341.3400, 473.6696
341.8221, 473.1356
342.3042, 473.0543
342.7863, 473.5867
343.2685, 473.6922
343.7506, 472.5615
344.2327, 470.6374
344.7148, 468.9762
345.1969, 467.8189
345.6790, 466.9102
346.1612, 465.9298
346.6433, 464.9002
347.1254, 464.1416
347.6075, 463.9337
348.0896, 463.9470
348.5717, 463.7765
349.0539, 463.3828
349.5360, 462.9510
350.0181, 462.5379
350.5002, 462.2040
350.9823, 462.1464
351.4644, 462.6891
351.9466, 463.2437
352.4287, 463.3167
352.9108, 463.0137
353.3929, 462.8085
353.8750, 462.8510
354.3571, 463.2245
354.8393, 464.1828
355.3214, 466.0402
355.8035, 467.6863
356.2856, 468.6399
356.7677, 469.1271
357.2498, 469.4752
357.7320, 469.7416
358.2141, 470.0891
358.6962, 470.8053
359.1783, 471.9655
359.6604, 473.0150
360.1425, 473.6827
360.6247, 474.3498
361.1068, 475.5257
361.5889, 477.2123
362.0710, 478.6949
362.5531, 479.2256
363.0352, 478.8520
363.5174, 479.4514
363.9995, 482.0148
364.4816, 484.4774
364.9637, 485.7114
365.4458, 486.0433
365.9279, 486.3118
366.4101, 486.8964
366.8922, 487.8361
367.3743, 489.2935
367.8564, 491.7296
368.3385, 493.9903
368.8206, 495.8405
369.3028, 497.4777
369.7849, 499.0991
370.2670, 500.7567
370.7491, 502.4232
371.2312, 504.0493
371.7133, 505.5674
372.1955, 507.2369
372.6776, 509.2851
373.1597, 511.2777
373.6418, 512.8275
374.1239, 514.0341
374.6060, 515.3684
375.0882, 517.2440
375.5703, 519.6368
376.0524, 521.8807
376.5345, 523.9587
377.0166, 525.9310
377.4987, 527.5345
377.9809, 529.1211
378.4630, 531.2236
378.9451, 534.0900
379.4272, 537.4721
379.9093, 540.8185
380.3914, 544.4294
380.8736, 547.4780
381.3557, 549.3647
381.8378, 551.1394
382.3199, 553.4890
382.8020, 556.5637
383.2841, 560.2037
383.7663, 564.3176
384.2484, 569.0290
384.7305, 573.4399
385.2126, 577.0228
385.6947, 580.8245
386.1768, 585.1519
386.6590, 589.9574
387.1411, 595.0807
387.6232, 600.4301
388.1053, 606.0651
388.5874, 612.2874
389.0695, 619.8224
389.5517, 626.5192
390.0338, 631.1016
390.5159, 635.2118
390.9980, 640.2928
391.4801, 646.7624
391.9622, 654.0649
392.4444, 661.8307
392.9265, 670.1566
393.4086, 677.8799
393.8907, 684.1300
394.3728, 690.4114
394.8549, 697.6719
395.3371, 705.7418
395.8192, 713.7861
396.3013, 721.1987
396.7834, 728.1969
397.2655, 735.4484
397.7477, 743.0231
398.2298, 750.6331
398.7119, 758.1111
399.1940, 765.5494
399.6761, 773.1869
400.1582, 781.4278
400.6404, 789.1138
401.1225, 794.7284
401.6046, 798.4269
402.0867, 802.1921
402.5688, 806.8409
403.0509, 811.5238
403.5331, 815.3466
404.0152, 818.3206
404.4973, 820.6767
404.9794, 822.8019
405.4615, 824.2947
405.9436, 824.3685
406.4258, 822.8806
406.9079, 820.4336
407.3900, 817.3285
407.8721, 813.6075
408.3542, 809.5781
408.8363, 805.4371
409.3185, 800.8510
409.8006, 795.7569
410.2827, 790.0858
410.7648, 783.5839
411.2469, 776.0300
411.7290, 767.8203
412.2112, 759.9179
412.6933, 752.7481
413.1754, 744.8422
413.6575, 735.4252
414.1396, 725.4433
414.6217, 715.7719
415.1039, 706.5977
415.5860, 697.6848
416.0681, 688.8495
416.5502, 680.1215
417.0323, 671.1044
417.5144, 661.6412
417.9966, 652.1094
418.4787, 642.3690
418.9608, 632.7200
419.4429, 623.6773
419.9250, 615.5379
420.4071, 607.9839
420.8893, 600.0929
421.3714, 591.2237
421.8535, 583.0848
422.3356, 576.4060
422.8177, 569.9162
423.2998, 562.4964
423.7820, 554.0925
424.2641, 545.6605
424.7462, 538.1381
425.2283, 531.5188
425.7104, 525.4746
426.1925, 520.6420
426.6747, 515.7215
427.1568, 510.1300
427.6389, 504.2518
428.1210, 498.6851
428.6031, 493.6807
429.0852, 489.2374
429.5674, 485.6417
430.0495, 483.3438
430.5316, 480.2561
431.0137, 474.7379
431.4958, 469.0747
431.9779, 464.9761
432.4601, 462.4464
432.9422, 459.9426
433.4243, 455.8698
433.9064, 450.7614
434.3885, 447.0140
434.8706, 445.0983
435.3528, 443.6802
435.8349, 442.0868
436.3170, 440.3695
436.7991, 438.5084
437.2812, 436.1146
437.7633, 434.1256
438.2455, 434.0829
438.7276, 435.5847
439.2097, 435.6583
439.6918, 432.7826
440.1739, 428.7852
440.6560, 426.4372
441.1382, 425.7686
441.6203, 425.2553
442.1024, 424.4655
442.5845, 423.6225
443.0666, 423.1186
443.5487, 422.9463
444.0309, 422.5230
444.5130, 421.3163
444.9951, 419.4458
445.4772, 418.0296
445.9593, 416.4019
446.4414, 415.9135
446.9236, 418.2194
447.4057, 421.5666
447.8878, 423.2013
448.3699, 422.2051
448.8520, 419.9051
449.3341, 418.2377
449.8163, 417.2155
450.2984, 416.9160
450.7805, 417.2627
451.2626, 418.2741
451.7447, 420.5111
452.2268, 423.4550
452.7090, 425.8132
453.1911, 426.6080
453.6732, 426.3537
454.1553, 427.2531
454.6374, 430.0210
455.1195, 432.7758
455.6017, 435.2516
456.0838, 437.5575
456.5659, 439.6035
457.0480, 441.4566
457.5301, 443.5441
458.0122, 446.3155
458.4944, 449.7743
458.9765, 453.6576
459.4586, 458.5725
459.9407, 462.9523
460.4228, 465.5924
460.9049, 467.2611
461.3871, 469.3330
461.8692, 472.3718
462.3513, 475.8604
462.8334, 479.1637
463.3155, 482.2941
463.7976, 485.6544
464.2798, 489.7224
464.7619, 493.6323
465.2440, 496.1284
465.7261, 497.2022
466.2082, 498.4299
466.6903, 500.3564
467.1725, 502.7184
467.6546, 505.2662
468.1367, 507.9587
468.6188, 510.7105
469.1009, 513.4130
469.5830, 516.1194
470.0652, 519.1777
470.5473, 522.8082
471.0294, 526.4291
471.5115, 529.7007
471.9936, 532.9529
472.4757, 536.5788
472.9579, 540.6807
473.4400, 545.2437
473.9221, 550.3152
474.4042, 556.0325
474.8863, 561.4402
475.3684, 566.9607
475.8506, 571.8193
476.3327, 575.5106
476.8148, 578.3716
477.2969, 580.9499
477.7790, 583.4920
478.2611, 585.9110
478.7433, 588.0754
479.2254, 590.1874
479.7075, 591.4308
480.1896, 592.0505
480.6717, 591.4904
481.1538, 589.1262
481.6360, 585.1643
482.1181, 580.4780
482.6002, 575.4955
483.0823, 570.2869
483.5644, 565.1256
484.0465, 560.2900
484.5287, 554.5419
485.0108, 546.8651
485.4929, 538.1879
485.9750, 529.3737
486.4571, 520.4493
486.9392, 511.9811
487.4214, 504.7701
487.9035, 498.1914
488.3856, 490.8176
488.8677, 482.2926
489.3498, 473.5816
489.8319, 465.5335
490.3141, 458.0917
490.7962, 450.5640
491.2783, 442.3959
491.7604, 434.6596
492.2425, 428.0490
492.7246, 422.1402
493.2068, 415.9579
493.6889, 409.1805
494.1710, 402.5433
494.6531, 397.3677
495.1352, 394.3200
495.6173, 390.6691
496.0995, 385.6840
496.5816, 380.8957
497.0637, 377.1252
497.5458, 374.1456
498.0279, 371.3780
498.5100, 368.5042
498.9922, 365.5819
499.4743, 362.5937
499.9564, 359.1950
500.4385, 356.6402
500.9206, 355.8861
501.4027, 355.3844
501.8849, 354.3566
502.3670, 352.7197
502.8491, 350.6235
503.3312, 347.7408
503.8133, 344.5706
504.2954, 342.6353
504.7776, 342.1867
505.2597, 341.8289
505.7418, 340.9946
506.2239, 339.8466
506.7060, 338.5872
507.1881, 337.1841
507.6703, 335.8645
508.1524, 334.7753
508.6345, 333.8329
509.1166, 332.8437
509.5987, 331.7744
510.0808, 330.9167
510.5630, 330.5908
511.0451, 330.7282
511.5272, 330.5004
512.0093, 329.8431
512.4914, 328.9489
512.9735, 327.6595
513.4556, 326.2503
513.9377, 324.9803
514.4199, 323.9572
514.9020, 323.3066
515.3841, 323.3011
515.8662, 324.1211
516.3483, 324.3513
516.8304, 323.5192
517.3126, 322.5792
517.7947, 321.6998
518.2768, 320.9066
518.7589, 320.2612
519.2410, 319.8009
519.7231, 319.3006
520.2053, 318.2934
520.6874, 316.7170
521.1695, 315.6077
521.6516, 315.3934
522.1337, 315.3070
522.6158, 314.7065
523.0980, 313.7954
523.5801, 313.1732
524.0622, 313.2565
524.5443, 313.5180
525.0264, 313.2847
525.5085, 312.6751
525.9907, 312.4829
526.4728, 313.1316
526.9549, 313.9897
527.4370, 314.0853
527.9191, 313.3150
528.4012, 312.5258
528.8834, 311.4710
529.3655, 310.7056
529.8476, 310.9594
530.3297, 311.8585
530.8118, 312.3028
531.2939, 311.6826
531.7761, 310.3640
532.2582, 309.2406
532.7403, 308.1594
533.2224, 307.5878
533.7045, 307.8992
534.1866, 308.3258
534.6688, 308.5585
535.1509, 308.5074
535.6330, 308.0452
536.1151, 306.9429
536.5972, 305.5660
537.0793, 304.9671
537.5615, 305.3495
538.0436, 305.6876
538.5257, 305.6191
539.0078, 305.4471
539.4899, 305.5003
539.9720, 305.7694
540.4542, 305.8649
540.9363, 305.5000
541.4184, 304.9017
541.9005, 304.3590
542.3826, 303.8860
542.8647, 303.4742
543.3469, 303.1162
543.8290, 302.8157
544.3111, 302.5780
544.7932, 302.3666
545.2753, 302.2836
545.7574, 302.6880
546.2396, 302.9772
546.7217, 302.2809
547.2038, 300.8533
547.6859, 299.9894
548.1680, 300.6856
548.6501, 302.4932
549.1323, 303.4075
549.6144, 302.9627
550.0965, 302.3843
550.5786, 301.5336
551.0607, 300.8268
551.5428, 300.6351
552.0250, 300.9258
552.5071, 301.3571
552.9892, 301.8892
553.4713, 302.3100
553.9534, 301.7946
554.4355, 300.0865
554.9177, 298.7426
555.3998, 298.4495
555.8819, 298.8133
556.3640, 299.4433
556.8461, 300.4400
557.3282, 300.8204
557.8104, 299.4451
558.2925, 297.6959
558.7746, 297.4590
559.2567, 298.6582
559.7388, 299.7225
560.2209, 299.7039
560.7031, 298.8919
561.1852, 298.2104
561.6673, 297.6778
562.1494, 297.2538
562.6315, 296.9123
563.1136, 296.7002
563.5958, 296.7302
564.0779, 296.9362
564.5600, 297.1055
565.0421, 297.0838
565.5242, 296.9212
566.0063, 296.7526
566.4885, 296.5110
566.9706, 296.4612
567.4527, 297.0846
567.9348, 297.6010
568.4169, 297.3042
568.8990, 296.2859
569.3812, 295.3961
569.8633, 295.0537
570.3454, 295.1170
570.8275, 295.6966
571.3096, 296.7097
571.7917, 296.9118
572.2739, 295.4806
572.7560, 293.4391
573.2381, 292.6541
573.7202, 293.3813
574.2023, 294.2360
574.6844, 295.3711
575.1666, 296.3581
575.6487, 296.8800
576.1308, 297.0069
576.6129, 296.9603
577.0950, 296.8523
577.5771, 296.6676
578.0593, 296.3222
578.5414, 295.6335
579.0235, 295.2822
579.5056, 295.6056
579.9877, 295.9915
580.4698, 296.0493
580.9520, 295.9604
581.4341, 296.2346
581.9162, 297.2748
582.3983, 298.4040
582.8804, 298.6099
583.3625, 297.9797
583.8447, 297.4243
584.3268, 297.1342
584.8089, 297.0195
585.2910, 297.0133
585.7732, 297.1147
586.2553, 297.3149
586.7374, 297.8774
587.2195, 298.2646
587.7017, 298.0146
588.1838, 297.4467
588.6659, 297.1044
589.1480, 297.1529
589.6301, 297.4302
590.1122, 297.7650
590.5944, 298.1736
591.0765, 298.4728
591.5586, 298.6198
592.0407, 298.6976
592.5228, 298.8049
593.0049, 298.8148
593.4871, 298.4395
593.9692, 297.6256
594.4513, 296.9837
594.9334, 297.2486
595.4155, 298.2016
595.8976, 298.9295
596.3798, 299.4012
596.8619, 299.5484
597.3440, 299.1751
597.8261, 298.4974
598.3082, 298.0357
598.7903, 297.7754
599.2725, 297.7690
599.7546, 298.0659
600.2367, 298.6057
600.7188, 299.4213
601.2009, 300.4511
601.6830, 301.4367
602.1652, 302.2016
602.6473, 302.8051
603.1294, 303.4584
603.6115, 304.1304
604.0936, 304.9160
604.5757, 306.1077
605.0579, 307.1498
605.5400, 307.5988
606.0221, 307.5794
606.5042, 307.5448
606.9863, 307.6876
607.4684, 308.0365
607.9506, 308.6236
608.4327, 309.4523
608.9148, 310.6204
609.3969, 312.2881
609.8790, 314.0580
610.3611, 315.4727
610.8433, 316.5706
611.3254, 317.7158
611.8075, 318.9512
612.2896, 320.2383
612.7717, 321.6204
613.2538, 323.0223
613.7360, 324.3730
614.2181, 325.6373
614.7002, 326.6713
615.1823, 327.2530
615.6644, 327.3464
616.1465, 327.7316
616.6287, 328.6263
617.1108, 329.5178
617.5929, 330.1649
618.0750, 330.8010
618.5571, 331.9406
619.0392, 333.6160
619.5214, 334.6447
620.0035, 333.5440
620.4856, 331.3041
620.9677, 330.1561
621.4498, 330.2177
621.9319, 330.7430
622.4141, 331.6317
622.8962, 332.4828
623.3783, 332.3287
623.8604, 330.8569
624.3425, 329.5214
624.8246, 328.7143
625.3068, 327.8958
625.7889, 326.6881
626.2710, 325.1649
626.7531, 323.5222
627.2352, 321.8602
627.7173, 320.2296
628.1995, 318.7714
628.6816, 317.5302
629.1637, 316.1830
629.6458, 314.6798
630.1279, 313.1123
630.6100, 311.5167
631.0922, 309.8910
631.5743, 308.2314
632.0564, 306.5184
632.5385, 304.8266
633.0206, 303.1047
633.5027, 301.4725
633.9849, 300.2578
634.4670, 299.4973
634.9491, 298.6972
635.4312, 297.4596
635.9133, 295.9113
636.3954, 294.6351
636.8776, 293.7626
637.3597, 293.0165
637.8418, 292.5706
638.3239, 292.1050
638.8060, 291.4168
639.2881, 290.4996
639.7703, 289.3760
640.2524, 287.9749
640.7345, 286.5935
641.2166, 286.0295
641.6987, 286.3414
642.1808, 285.9907
642.6630, 284.3716
643.1451, 282.5071
643.6272, 281.3104
644.1093, 280.6274
644.5914, 279.9681
645.0735, 279.1576
645.5557, 278.4875
646.0378, 278.1701
646.5199, 278.0455
647.0020, 277.9417
647.4841, 277.8011
647.9662, 277.5461
648.4484, 277.0949
648.9305, 276.4756
649.4126, 275.8469
649.8947, 275.1140
650.3768, 274.5637
650.8589, 274.4513
651.3411, 274.3663
651.8232, 274.1187
652.3053, 273.6520
652.7874, 272.8314
653.2695, 271.2348
653.7516, 269.5882
654.2338, 268.9070
654.7159, 269.0083
655.1980, 269.0619
655.6801, 268.8332
656.1622, 268.4789
656.6443, 268.1237
657.1265, 267.7551
657.6086, 267.6699
658.0907, 268.1249
658.5728, 268.5018
659.0549, 268.8421
659.5370, 268.9235
660.0192, 268.3713
660.5013, 267.2380
660.9834, 266.1243
661.4655, 265.6049
661.9476, 265.4307
662.4297, 264.6289
662.9119, 263.0226
663.3940, 262.2823
663.8761, 263.4157
664.3582, 265.0393
664.8403, 265.4688
665.3224, 264.8056
665.8046, 264.0987
666.2867, 263.3531
666.7688, 262.7712
667.2509, 262.6694
667.7330, 262.7426
668.2151, 262.4142
668.6973, 261.5719
669.1794, 260.6754
669.6615, 260.1469
670.1436, 259.9948
670.6257, 260.4218
671.1078, 262.0352
671.5900, 262.9725
672.0721, 262.0207
672.5542, 260.6790
673.0363, 260.2018
673.5184, 260.5722
674.0005, 260.7799
674.4827, 260.0865
674.9648, 259.2799
675.4469, 259.2966
675.9290, 259.8615
676.4111, 260.0663
676.8932, 259.6219
677.3754, 259.0614
677.8575, 259.0519
678.3396, 259.6294
678.8217, 259.8322
679.3038, 259.3625
679.7859, 258.8863
680.2681, 258.4086
680.7502, 258.0476
681.2323, 257.9192
681.7144, 258.0249
682.1965, 258.2762
682.6786, 258.8065
683.1608, 259.3146
683.6429, 259.1983
684.1250, 258.5296
684.6071, 257.9567
685.0892, 257.7047
685.5714, 257.4795
686.0535, 256.8783
686.5356, 255.8589
687.0177, 255.2740
687.4998, 255.3947
687.9819, 255.5628
688.4641, 255.7598
688.9462, 255.8330
689.4283, 255.4238
689.9104, 254.6450
690.3925, 254.2370
690.8746, 254.9282
691.3568, 256.2174
691.8389, 256.9260
692.3210, 257.0420
692.8031, 256.8798
693.2852, 256.3826
693.7673, 255.8991
694.2495, 255.8652
694.7316, 256.2419
695.2137, 256.3781
695.6958, 256.0106
696.1779, 255.6918
696.6600, 255.7303
697.1422, 255.8461
697.6243, 255.6470
698.1064, 255.1488
698.5885, 254.7582
699.0706, 254.8290
699.5527, 255.1504
700.0349, 255.0767
700.5170, 254.5324
700.9991, 254.0590
701.4812, 253.7026
701.9633, 253.5229
702.4454, 253.6230
702.9276, 253.9450
703.4097, 254.3250
703.8918, 254.8528
704.3739, 255.2808
704.8560, 255.5565
705.3381, 255.6501
705.8203, 255.3624
706.3024, 254.8002
706.7845, 254.4738
707.2666, 254.7430
707.7487, 255.4481
708.2308, 256.2601
708.7130, 257.3172
709.1951, 257.7793
709.6772, 257.0500
710.1593, 256.3672
710.6414, 256.7198
711.1235, 257.6585
711.6057, 258.1981
712.0878, 257.9829
712.5699, 257.8209
713.0520, 258.4275
713.5341, 259.1034
714.0162, 258.7846
714.4984, 257.6400
714.9805, 256.8612
715.4626, 257.1716
715.9447, 257.8977
716.4268, 257.4483
716.9089, 255.3813
717.3911, 254.1271
717.8732, 254.0301
718.3553, 254.3820
718.8374, 255.2175
719.3195, 256.1211
719.8016, 256.4240
720.2838, 255.9375
720.7659, 255.4148
721.2480, 255.2610
721.7301, 255.2197
722.2122, 254.9669
722.6943, 254.5654
723.1765, 254.3468
723.6586, 254.4600
724.1407, 254.5927
724.6228, 254.2038
725.1049, 253.1950
725.5870, 252.5973
726.0692, 252.6703
726.5513, 252.7390
727.0334, 252.2883
727.5155, 251.8973
727.9976, 252.4866
728.4797, 254.0771
728.9619, 254.8578
729.4440, 253.1684
729.9261, 251.1142
730.4082, 250.7804
730.8903, 251.5802
731.3724, 252.0646
731.8546, 251.8040
732.3367, 251.1224
732.8188, 250.2710
733.3009, 249.3044
733.7830, 248.8991
734.2651, 249.3345
734.7473, 249.7299
735.2294, 249.7930
735.7115, 249.8374
736.1936, 250.3147
736.6757, 251.0289
737.1578, 251.0708
737.6400, 249.4455
738.1221, 248.0080
738.6042, 248.3425
739.0863, 249.5341
739.5684, 250.1024
740.0505, 249.8747
740.5327, 249.5553
741.0148, 249.6512
741.4969, 250.0296
741.9790, 250.3089
742.4611, 250.4984
742.9432, 250.5534
743.4254, 250.4924
743.9075, 250.2582
744.3896, 249.6177
744.8717, 248.8426
745.3538, 248.5145
745.8359, 248.9273
746.3181, 249.1152
746.8002, 248.1875
747.2823, 247.1558
747.7644, 247.3020
748.2465, 248.3183
748.7286, 248.9367
749.2108, 248.5790
749.6929, 247.8786
750.1750, 247.8254
750.6571, 248.4614
751.1392, 248.8685
751.6213, 249.0011
752.1035, 249.0089
752.5856, 248.8755
753.0677, 248.6951
753.5498, 248.4962
754.0319, 248.2705
754.5140, 248.4067
754.9962, 249.1980
755.4783, 250.1647
755.9604, 251.3514
756.4425, 252.3839
756.9246, 252.5712
757.4067, 251.8705
757.8889, 251.0357
758.3710, 250.7116
758.8531, 250.7474
759.3352, 250.5925
759.8173, 250.1994
760.2994, 250.0364
760.7816, 250.2567
761.2637, 250.6438
761.7458, 251.1708
762.2279, 251.7328
762.7100, 251.8378
763.1921, 250.9352
763.6743, 250.4177
764.1564, 250.7848
764.6385, 251.5164
765.1206, 252.4073
765.6027, 253.2772
766.0848, 253.7746
766.5670, 253.7224
767.0491, 253.5198
767.5312, 253.7726
768.0133, 254.3644
768.4954, 254.5477
768.9775, 254.2068
769.4597, 254.1189
769.9418, 254.7791
770.4239, 255.7190
770.9060, 256.0531
771.3881, 255.4846
771.8702, 255.5172
772.3524, 256.5521
772.8345, 257.6857
773.3166, 258.9620
773.7987, 259.9613
774.2808, 260.0530
774.7629, 259.2805
775.2451, 258.5179
775.7272, 258.1922
776.2093, 258.3607
776.6914, 259.3846
777.1735, 261.0251
777.6556, 262.2205
778.1378, 262.7182
778.6199, 263.1504
779.1020, 264.1020
779.5841, 265.4079
780.0662, 266.2010
780.5483, 266.2161
781.0305, 266.2158
781.5126, 266.0471
781.9947, 266.0723
782.4768, 266.6507
782.9589, 267.5060
783.4410, 268.0536
783.9232, 268.0666
784.4053, 268.2210
784.8874, 269.4229
785.3695, 270.6579
785.8516, 270.2999
786.3337, 268.7939
786.8159, 267.9153
787.2980, 268.3709
787.7801, 269.4205
788.2622, 270.1464
788.7443, 270.5533
789.2264, 270.8912
789.7086, 271.1208
790.1907, 271.3997
790.6728, 271.8556
791.1549, 272.3024
791.6370, 272.6042
792.1191, 272.7534
792.6013, 272.6623
793.0834, 272.0214
793.5655, 271.5050
794.0476, 271.4407
794.5297, 271.5731
795.0118, 271.7293
795.4940, 271.8308
795.9761, 271.7892
796.4582, 271.5652
796.9403, 271.1127
797.4224, 270.2063
797.9045, 268.9491
798.3867, 268.1613
798.8688, 267.9802
799.3509, 267.6302
799.8330, 266.6771
800.3151, 265.3784
800.7972, 264.1682
801.2794, 262.9416
801.7615, 262.2219
802.2436, 262.7090
802.7257, 262.7966
803.2078, 261.6407
803.6899, 260.1054
804.1721, 258.9855
804.6542, 258.4070
805.1363, 258.2331
805.6184, 258.7432
806.1005, 259.2198
806.5826, 258.8386
807.0648, 257.8704
807.5469, 256.8096
808.0290, 255.7827
808.5111, 255.0241
808.9932, 254.7350
809.4753, 254.7037
809.9575, 254.3409
810.4396, 253.5520
810.9217, 252.8543
811.4038, 252.3381
811.8859, 251.8075
812.3680, 251.0185
812.8502, 250.2267
813.3323, 249.8225
813.8144, 249.8613
814.2965, 250.0031
814.7786, 250.4497
815.2607, 250.6801
815.7429, 249.9585
816.2250, 249.0351
816.7071, 249.1265
817.1892, 250.3189
817.6713, 251.6066
818.1534, 252.3036
818.6356, 252.4931
819.1177, 252.2473
819.5998, 251.6035
820.0819, 250.8107
820.5640, 249.8863
821.0461, 249.0600
821.5283, 248.5482
822.0104, 248.1890
822.4925, 247.4876
822.9746, 246.2405
823.4567, 245.0895
823.9388, 243.9444
824.4210, 242.9932
824.9031, 242.5272
825.3852, 242.1748
825.8673, 241.4594
826.3494, 240.3142
826.8315, 239.0535
827.3137, 237.5764
827.7958, 236.2808
828.2779, 235.4852
828.7600, 235.1294
829.2421, 235.3595
829.7242, 236.0319
830.2064, 236.2115
830.6885, 235.0751
831.1706, 233.2658
831.6527, 232.5170
832.1348, 232.8802
832.6169, 232.6904
833.0991, 231.5723
833.5812, 230.4910
834.0633, 230.0772
834.5454, 230.0191
835.0275, 229.5821
835.5096, 228.4924
835.9918, 227.8535
836.4739, 227.9653
836.9560, 228.1759
837.4381, 228.2973
837.9202, 228.3592
838.4023, 228.4183
838.8845, 228.4763
839.3666, 228.4844
839.8487, 228.4231
840.3308, 228.2963
840.8129, 228.0954
841.2950, 227.8391
841.7772, 227.4666
842.2593, 227.0306
842.7414, 226.9517
843.2235, 227.5514
843.7056, 228.3069
844.1877, 228.0078
844.6699, 226.5332
845.1520, 225.5482
845.6341, 225.2157
846.1162, 225.0590
846.5983, 224.9693
847.0804, 224.8643
847.5626, 224.5784
848.0447, 224.0887
848.5268, 223.7801
849.0089, 224.1480
849.4910, 224.0789
849.9731, 222.4536
850.4553, 220.8833
850.9374, 221.0625
851.4195, 222.6438
851.9016, 224.1186
852.3837, 224.9160
852.8658, 225.1454
853.3480, 224.5740
853.8301, 223.6623
854.3122, 223.2751
854.7943, 223.3703
855.2764, 223.3652
855.7585, 223.0074
856.2407, 222.6928
856.7228, 223.0518
857.2049, 223.9867
857.6870, 224.1392
858.1691, 223.2748
858.6512, 222.5674
859.1334, 222.4444
859.6155, 222.3353
860.0976, 221.6405
860.5797, 220.5011
861.0618, 219.7093
861.5439, 219.2573
862.0261, 219.1554
862.5082, 219.7683
862.9903, 220.3659
863.4724, 220.3562
863.9545, 220.0979
864.4366, 220.3042
864.9188, 221.1330
865.4009, 221.8167
865.8830, 221.7908
866.3651, 221.4052
866.8472, 221.0573
867.3293, 220.6750
867.8115, 219.9783
868.2936, 218.9558
868.7757, 218.0064
869.2578, 217.4534
869.7399, 217.1214
870.2220, 216.4573
870.7042, 215.4177
871.1863, 215.1170
871.6684, 215.8816
872.1505, 216.5313
872.6326, 216.4695
873.1147, 215.9309
873.5969, 215.2381
874.0790, 214.3045
874.5611, 213.6924
875.0432, 213.3642
875.5253, 213.3916
876.0074, 214.2917
876.4896, 215.1546
876.9717, 215.0574
877.4538, 214.2119
877.9359, 213.6051
878.4180, 213.6308
878.9001, 213.7901
879.3823, 213.8463
879.8644, 213.8233
880.3465, 213.8017
880.8286, 213.7211
881.3107, 213.3332
881.7928, 212.5785
882.2750, 211.8869
882.7571, 211.8126
883.2392, 211.4511
883.7213, 211.3158
884.2034, 211.5176
884.6855, 211.3876
885.1677, 211.8584
885.6498, 212.2779
886.1319, 212.1194
886.6140, 211.5386
887.0961, 211.0627
887.5782, 210.7403
888.0604, 210.3829
888.5425, 209.7905
889.0246, 209.4383
889.5067, 209.8523
889.9888, 210.4006
890.4709, 210.1973
890.9531, 209.2208
891.4352, 208.6951
891.9173, 209.4059
892.3994, 209.9436
892.8815, 209.5701
893.3636, 208.8812
893.8458, 208.4219
894.3279, 208.1965
894.8100, 207.9980
895.2921, 207.7441
895.7742, 207.4552
896.2563, 207.0675
896.7385, 206.7033
897.2206, 206.7246
897.7027, 206.9901
898.1848, 206.8287
898.6669, 206.0536
899.1490, 205.2710
899.6312, 205.0909
900.1133, 205.3438
900.5954, 205.4512
901.0775, 205.4310
901.5596, 204.9812
902.0417, 203.8913
902.5239, 202.9114
903.0060, 202.4493
903.4881, 202.4212
903.9702, 202.7204
904.4523, 203.5093
904.9344, 203.9594
905.4166, 203.7812
905.8987, 203.6362
906.3808, 203.6541
906.8629, 203.7754
907.3450, 204.0857
907.8271, 204.4702
908.3093, 204.4952
908.7914, 203.9250
909.2735, 203.2431
909.7556, 202.6385
910.2377, 202.0359
910.7198, 201.1650
911.2020, 200.3013
911.6841, 200.0302
912.1662, 200.4946
912.6483, 201.2385
913.1304, 202.2219
913.6125, 202.9542
914.0947, 202.1659
914.5768, 200.4540
915.0589, 199.9454
915.5410, 200.8828
916.0231, 201.6961
916.5052, 201.3617
916.9874, 201.8100
917.4695, 201.8196
917.9516, 201.4233
918.4337, 201.6185
918.9158, 200.8924
919.3979, 200.4736
919.8801, 200.9706
920.3622, 201.5253
920.8443, 201.0598
921.3264, 199.7414
921.8085, 199.3807
922.2906, 201.1144
922.7728, 201.9417
923.2549, 200.6008
923.7370, 199.6005
924.2191, 200.9414
924.7012, 202.9951
925.1833, 203.0385
925.6655, 200.6778
926.1476, 198.7008
926.6297, 197.9195
927.1118, 197.7446
927.5939, 198.3679
928.0760, 199.0924
928.5582, 199.0587
929.0403, 198.4077
929.5224, 197.9067
930.0045, 197.9055
930.4866, 198.0309
930.9688, 197.9137
931.4509, 197.7213
931.9330, 197.6229
932.4151, 197.6867
932.8972, 198.2996
933.3793, 199.4624
933.8615, 200.1911
934.3436, 199.5582
934.8257, 198.0536
935.3078, 196.6734
935.7899, 195.4549
936.2720, 195.0475
936.7542, 195.5846
937.2363, 196.2468
937.7184, 196.6795
938.2005, 196.8806
938.6826, 196.8258
939.1647, 196.5101
939.6469, 196.1323
940.1290, 195.5565
940.6111, 195.2601
941.0932, 195.4760
941.5753, 195.8148
942.0574, 196.1798
942.5396, 196.4295
943.0217, 196.1248
943.5038, 194.9478
943.9859, 194.1935
944.4680, 194.0473
944.9501, 194.2402
945.4323, 195.1064
945.9144, 195.9525
946.3965, 195.9221
946.8786, 195.1618
947.3607, 194.6854
947.8428, 195.0907
948.3250, 195.2578
948.8071, 194.0475
949.2892, 192.7816
949.7713, 192.9812
950.2534, 194.0258
950.7355, 194.4747
951.2177, 194.0015
951.6998, 193.5109
952.1819, 193.8146
952.6640, 194.2989
953.1461, 193.9275
953.6282, 193.1371
954.1104, 193.1065
954.5925, 193.8176
955.0746, 194.2410
955.5567, 193.8632
956.0388, 193.2441
956.5209, 193.0925
957.0031, 193.3662
957.4852, 193.9519
957.9673, 194.8500
958.4494, 195.5905
958.9315, 196.0982
959.4136, 196.1777
959.8958, 195.6126
960.3779, 194.6652
960.8600, 194.0435
961.3421, 193.8725
961.8242, 193.3122
962.3063, 191.9698
962.7885, 191.2690
963.2706, 192.1572
963.7527, 193.2258
964.2348, 192.8993
964.7169, 191.4245
965.1990, 190.6160
965.6812, 190.7724
966.1633, 191.1548
966.6454, 192.2585
967.1275, 193.0186
967.6096, 192.6998
968.0917, 191.9579
968.5739, 191.5591
969.0560, 191.5647
969.5381, 191.7959
970.0202, 192.4878
970.5023, 193.0287
970.9844, 193.2807
971.4666, 193.2298
971.9487, 192.6909
972.4308, 191.8966
972.9129, 191.2759
973.3950, 190.9404
973.8771, 190.6834
974.3593, 190.3502
974.8414, 190.0713
975.3235, 189.8524
975.8056, 189.8200
976.2877, 190.3839
976.7698, 191.3384
977.2520, 191.8364
977.7341, 191.4690
978.2162, 190.9177
978.6983, 190.9301
979.1804, 191.2561
979.6625, 191.5182
980.1447, 191.6703
980.6268, 191.5510
981.1089, 191.1527
981.5910, 190.6684
982.0731, 190.2004
982.5552, 189.8984
983.0374, 190.2088
983.5195, 190.9922
984.0016, 190.9605
984.4837, 190.0876
984.9658, 190.3824
985.4479, 192.6224
985.9301, 194.8517
986.4122, 195.2339
986.8943, 194.2282
987.3764, 193.4650
987.8585, 193.0078
988.3406, 192.2667
988.8228, 190.9644
989.3049, 190.2689
989.7870, 190.8517
990.2691, 191.9243
990.7512, 192.6631
991.2333, 193.0528
991.7155, 192.8371
992.1976, 191.5333
992.6797, 190.6457
993.1618, 190.4059
993.6439, 190.4156
994.1260, 190.6721
994.6082, 190.9637
995.0903, 190.8570
995.5724, 190.3201
996.0545, 190.3377
996.5366, 191.8383
997.0187, 192.6181
997.5009, 191.4983
997.9830, 190.4035
998.4651, 190.6469
998.9472, 191.6597
999.4293, 192.5258
999.9114, 193.1409
1000.394, 193.2544
1000.876, 192.2017
1001.358, 191.3895
1001.840, 191.5550
1002.322, 192.0903
1002.804, 192.5804
1003.286, 192.9522
1003.768, 193.2159
1004.250, 193.3790
1004.733, 193.3291
1005.215, 192.7224
1005.697, 192.1856
1006.179, 192.2995
1006.661, 192.6952
1007.143, 192.8639
1007.625, 192.8361
1008.107, 193.0074
1008.590, 193.5686
1009.072, 193.9784
1009.554, 193.6130
1010.036, 192.9856
1010.518, 192.6081
1011.000, 192.4793
1011.482, 192.6203
1011.964, 192.9752
1012.446, 193.3395
1012.929, 193.6073
1013.411, 193.8120
1013.893, 194.0139
1014.375, 194.1746
1014.857, 194.3629
1015.339, 194.4395
1015.821, 193.6641
1016.303, 192.0396
1016.786, 190.9294
1017.268, 191.3084
1017.750, 192.4065
1018.232, 193.0422
1018.714, 193.3081
1019.196, 193.5865
1019.678, 193.8799
1020.160, 194.1115
1020.642, 194.2601
1021.125, 194.2785
1021.607, 194.1290
1022.089, 193.8268
1022.571, 193.3200
1023.053, 192.6311
1023.535, 192.2503
1024.017, 192.1943
1024.499, 192.5663
1024.981, 193.4780
1025.464, 194.2500
1025.946, 194.2486
1026.428, 193.6617
1026.910, 192.9845
1027.392, 192.1632
1027.874, 191.7683
1028.356, 191.8276
1028.838, 192.3149
1029.321, 193.3226
1029.803, 194.4970
1030.285, 195.6178
1030.767, 196.5463
1031.249, 196.5779
1031.731, 195.3832
1032.213, 194.5695
1032.695, 194.3217
1033.177, 194.0531
1033.660, 193.3832
1034.142, 192.8982
1034.624, 193.3211
1035.106, 194.4706
1035.588, 195.1763
1036.070, 195.0989
1036.552, 195.4484
1037.034, 196.8846
1037.516, 197.6191
1037.999, 196.5058
1038.481, 194.8837
1038.963, 194.0479
1039.445, 193.9641
1039.927, 194.3927
1040.409, 196.3032
1040.891, 197.0041
1041.373, 195.4528
1041.856, 194.0108
1042.338, 193.4531
1042.820, 193.4855
1043.302, 194.0500
1043.784, 195.0308
1044.266, 195.5615
1044.748, 195.3721
1045.230, 195.1446
1045.713, 194.7802
1046.195, 194.5442
1046.677, 194.6368
1047.159, 194.8422
1047.641, 194.9339
1048.123, 194.9178
1048.605, 194.9025
1049.087, 194.7995
1049.569, 194.8791
1050.052, 195.6670
1050.534, 196.0697
1051.016, 195.0131
1051.498, 193.7118
1051.980, 193.5999
1052.462, 194.5770
1052.944, 195.5039
1053.426, 196.3686
1053.908, 196.7909
1054.391, 196.3442
1054.873, 195.8257
1055.355, 195.7121
1055.837, 195.6923
1056.319, 195.3750
1056.801, 194.7831
1057.283, 194.1956
1057.765, 193.6262
1058.248, 193.1965
1058.730, 192.7618
1059.212, 192.6809
1059.694, 193.6924
1060.176, 194.7909
1060.658, 194.5139
1061.140, 193.1767
1061.622, 192.6453
1062.104, 193.7607
1062.587, 194.7374
1063.069, 194.9465
1063.551, 194.8195
1064.033, 194.4410
1064.515, 193.9784
1064.997, 193.5157
1065.479, 193.1278
1065.961, 192.9779
1066.443, 193.1017
1066.926, 193.5094
1067.408, 195.0566
1067.890, 195.9157
1068.372, 194.0576
1068.854, 191.5959
1069.336, 191.1595
1069.818, 192.3733
1070.300, 193.1179
1070.783, 192.7351
1071.265, 192.1152
1071.747, 191.2106
1072.229, 190.6945
1072.711, 191.4121
1073.193, 192.3980
1073.675, 192.4282
1074.157, 191.7949
1074.640, 191.7527
1075.122, 192.7878
1075.604, 193.3324
1076.086, 191.8721
1076.568, 190.6636
1077.050, 191.6680
1077.532, 193.0816
1078.014, 192.6470
1078.496, 191.0607
1078.979, 190.5445
1079.461, 191.7113
1079.943, 193.0337
1080.425, 193.7584
1080.907, 194.5167
1081.389, 195.5080
1081.871, 196.8161
1082.353, 198.6699
1082.836, 200.8519
1083.318, 202.7393
1083.800, 204.2053
1084.282, 206.4132
1084.764, 210.0045
1085.246, 214.2880
1085.728, 220.0951
1086.210, 225.3681
1086.693, 228.6135
1087.175, 229.8935
1087.657, 229.2119
1088.139, 226.7141
1088.621, 223.9713
1089.103, 220.8885
1089.585, 218.6911
1090.067, 218.6275
1090.549, 218.9326
1091.031, 218.1594
1091.514, 216.8960
1091.996, 216.0159
1092.478, 215.6900
1092.960, 215.9961
1093.442, 217.5198
1093.924, 218.6285
1094.406, 218.6615
1094.888, 218.1494
1095.371, 217.5193
1095.853, 216.5035
1096.335, 214.3549
1096.817, 211.3712
1097.299, 209.2797
1097.781, 209.0242
1098.263, 208.4271
1098.745, 206.2130
1099.228, 204.1823
1099.710, 203.5445
1100.192, 203.3689
1100.674, 202.7054
1101.156, 201.5848
1101.638, 200.3885
1102.120, 199.0965
1102.602, 198.0743
1103.084, 197.6397
1103.567, 197.1856
1104.049, 196.3358
1104.531, 195.4812
1105.013, 194.8388
1105.495, 194.4827
1105.977, 194.5926
1106.459, 195.2703
1106.941, 195.8449
1107.423, 196.3600
1107.906, 196.5439
1108.388, 195.9267
1108.870, 195.3635
1109.352, 195.7359
1109.834, 196.4055
1110.316, 195.9612
1110.798, 194.2295
1111.280, 193.7357
1111.763, 196.2186
1112.245, 197.6234
1112.727, 196.5060
1113.209, 195.3053
1113.691, 195.2882
1114.173, 195.7890
1114.655, 195.9123
1115.137, 195.7040
1115.620, 195.8640
1116.102, 197.0414
1116.584, 197.4086
1117.066, 196.1487
1117.548, 195.2639
1118.030, 195.7633
1118.512, 196.5694
1118.994, 196.6306
1119.476, 196.1463
1119.958, 195.9201
1120.441, 196.0010
1120.923, 196.1936
1121.405, 196.5558
1121.887, 196.9118
1122.369, 197.2656
1122.851, 197.5085
1123.333, 197.5388
1123.815, 197.4232
1124.298, 197.2952
1124.780, 197.1485
1125.262, 197.0912
1125.744, 197.1586
1126.226, 197.1708
1126.708, 197.0555
1127.190, 197.0449
1127.672, 197.3235
1128.155, 197.6140
1128.637, 197.4330
1129.119, 196.8976
1129.601, 197.1506
1130.083, 198.3259
1130.565, 198.6946
1131.047, 197.9817
1131.529, 197.4011
1132.011, 197.4362
1132.494, 197.8260
1132.976, 198.3838
1133.458, 198.9337
1133.940, 198.8003
1134.422, 199.1758
1134.904, 199.3238
1135.386, 199.0771
1135.868, 199.3820
1136.350, 198.7188
1136.833, 198.1864
1137.315, 198.5977
1137.797, 199.3437
1138.279, 199.5070
1138.761, 199.1337
1139.243, 198.0249
1139.725, 196.4987
1140.207, 196.0347
1140.690, 196.7242
1141.172, 197.3972
1141.654, 197.5005
1142.136, 197.6087
1142.618, 198.5611
1143.100, 199.6492
1143.582, 199.3788
1144.064, 198.4568
1144.547, 198.3890
1145.029, 199.0798
1145.511, 199.8200
1145.993, 200.3486
1146.475, 200.5144
1146.957, 200.0564
1147.439, 199.6037
1147.921, 199.9184
1148.403, 200.4698
1148.885, 200.6277
1149.368, 200.5354
1149.850, 200.3193
1150.332, 200.1699
1150.814, 200.7959
1151.296, 202.7452
1151.778, 203.9004
1152.260, 202.3406
1152.742, 200.3086
1153.225, 198.9592
1153.707, 198.2224
1154.189, 198.1008
1154.671, 198.4280
1155.153, 199.0077
1155.635, 199.8073
1156.117, 200.2834
1156.599, 199.9023
1157.082, 199.6909
1157.564, 200.4463
1158.046, 200.9441
1158.528, 200.0179
1159.010, 198.6370
1159.492, 198.1031
1159.974, 198.4031
1160.456, 198.7526
1160.938, 199.3054
1161.421, 199.4854
1161.903, 198.8013
1162.385, 198.4167
1162.867, 198.9209
1163.349, 199.5162
1163.831, 199.6008
1164.313, 199.3123
1164.795, 198.9640
1165.277, 198.5391
1165.760, 198.1790
1166.242, 197.8818
1166.724, 197.6729
1167.206, 197.6025
1167.688, 197.4536
1168.170, 197.0594
1168.652, 196.7124
1169.134, 196.8465
1169.617, 196.5504
1170.099, 197.2307
1170.581, 196.6174
1171.063, 196.5702
1171.545, 197.1617
1172.027, 197.2836
1172.509, 196.5867
1172.991, 196.2911
1173.474, 197.4393
1173.956, 198.8601
1174.438, 198.3304
1174.920, 196.4712
1175.402, 195.1901
1175.884, 194.4072
1176.366, 193.7386
1176.848, 193.1532
1177.330, 192.9308
1177.813, 193.1718
1178.295, 193.3876
1178.777, 193.0330
1179.259, 192.5918
1179.741, 192.7707
1180.223, 193.1742
1180.705, 193.3790
1181.187, 193.2867
1181.669, 192.5192
1182.152, 191.2679
1182.634, 190.7966
1183.116, 191.9776
1183.598, 192.8820
1184.080, 192.1572
1184.562, 191.0336
1185.044, 190.1010
1185.526, 189.3837
1186.009, 188.9205
1186.491, 188.6413
1186.973, 188.3993
1187.455, 188.1710
1187.937, 187.9881
1188.419, 187.7792
1188.901, 187.7304
1189.383, 187.9253
1189.865, 188.2319
1190.348, 189.1231
1190.830, 189.6550
1191.312, 188.4525
1191.794, 185.9802
1192.276, 184.5704
1192.758, 184.6016
1193.240, 184.3881
1193.722, 183.8201
1194.204, 183.3055
1194.687, 182.8609
1195.169, 182.7998
1195.651, 183.4587
1196.133, 184.2211
1196.615, 184.0536
1197.097, 183.1221
1197.579, 182.4226
1198.061, 181.9395
1198.544, 181.4776
1199.026, 181.0050
1199.508, 180.2971
1199.990, 179.3024
1200.472, 178.4954
1200.954, 178.2973
1201.436, 178.3055
1201.918, 177.7607
1202.401, 177.8838
1202.883, 177.2034
1203.365, 177.8036
1203.847, 178.0544
1204.329, 177.8552
1204.811, 177.3877
1205.293, 176.7248
1205.775, 175.8995
1206.257, 174.5681
1206.740, 173.5929
1207.222, 173.8723
1207.704, 174.5249
1208.186, 175.0629
1208.668, 175.2478
1209.150, 174.5939
1209.632, 173.3058
1210.114, 172.5066
1210.596, 172.6678
1211.079, 172.5862
1211.561, 171.4542
1212.043, 170.8311
1212.525, 171.6849
1213.007, 172.6581
1213.489, 172.9679
1213.971, 172.7959
1214.453, 172.3762
1214.936, 171.7171
1215.418, 170.9248
1215.900, 170.7466
1216.382, 169.4443
1216.864, 170.2327
1217.346, 170.7384
1217.828, 170.4999
1218.310, 169.9683
1218.792, 169.4455
1219.275, 169.0010
1219.757, 168.8331
1220.239, 168.3383
1220.721, 168.4149
1221.203, 167.6860
1221.685, 167.2054
1222.167, 167.0691
1222.649, 167.4780
1223.131, 168.4246
1223.614, 169.0797
1224.096, 168.7062
1224.578, 168.1136
1225.060, 168.2386
1225.542, 168.6029
1226.024, 168.7110
1226.506, 168.6111
1226.988, 168.3354
1227.471, 167.9822
1227.953, 167.8613
1228.435, 168.0798
1228.917, 167.8787
1229.399, 166.3660
1229.881, 165.2552
1230.363, 165.1244
1230.845, 165.5256
1231.328, 167.0254
1231.810, 168.2997
1232.292, 167.1540
1232.774, 164.4443
1233.256, 163.7135
1233.738, 165.6118
1234.220, 166.6488
1234.702, 166.4896
1235.184, 166.6532
1235.667, 167.6663
1236.149, 167.9290
1236.631, 166.4687
1237.113, 164.5395
1237.595, 163.5606
1238.077, 163.4200
1238.559, 163.9142
1239.041, 164.9324
1239.523, 166.2241
1240.006, 167.5268
1240.488, 167.4764
1240.970, 166.0131
1241.452, 164.4647
1241.934, 163.4725
1242.416, 162.9811
1242.898, 163.0534
1243.380, 163.4608
1243.863, 164.2701
1244.345, 165.0330
1244.827, 165.1667
1245.309, 164.9241
1245.791, 164.7548
1246.273, 164.7113
1246.755, 164.6422
1247.237, 164.4915
1247.719, 164.3748
1248.202, 164.4793
1248.684, 164.3940
1249.166, 163.9032
1249.648, 163.2887
1250.130, 162.5587
1250.612, 161.9395
1251.094, 161.6974
1251.576, 161.8419
1252.058, 162.6155
1252.541, 162.4855
1253.023, 162.3781
1253.505, 162.9354
1253.987, 162.0267
1254.469, 162.2784
1254.951, 162.8718
1255.433, 163.3629
1255.915, 163.4473
1256.398, 162.3692
1256.880, 161.1734
1257.362, 162.4769
1257.844, 164.8775
1258.326, 165.4159
1258.808, 164.6879
1259.290, 164.7962
1259.772, 165.8307
1260.255, 166.0988
1260.737, 164.8150
1261.219, 163.5455
1261.701, 163.1386
1262.183, 162.9196
1262.665, 162.6903
1263.147, 162.3914
1263.629, 161.7119
1264.111, 161.1125
1264.594, 161.2895
1265.076, 162.1590
1265.558, 163.2050
1266.040, 164.7560
1266.522, 165.1772
1267.004, 164.0469
1267.486, 163.2715
1267.968, 163.2362
1268.450, 163.5841
1268.933, 164.2327
1269.415, 164.4518
1269.897, 163.1923
1270.379, 161.4253
1270.861, 161.7500
1271.343, 163.4248
1271.825, 164.4002
1272.307, 164.6568
1272.790, 164.2326
1273.272, 163.3643
1273.754, 162.7208
1274.236, 162.5592
1274.718, 162.9060
1275.200, 164.4777
1275.682, 165.5155
1276.164, 164.4544
1276.646, 163.0641
1277.129, 162.3964
1277.611, 162.2820
1278.093, 162.5510
1278.575, 163.1250
1279.057, 163.9560
1279.539, 165.1736
1280.021, 165.5558
1280.503, 164.7185
1280.985, 164.0444
1281.468, 163.7519
1281.950, 163.5222
1282.432, 163.2452
1282.914, 162.8962
1283.396, 162.4136
1283.878, 162.0347
1284.360, 162.2978
1284.842, 162.8980
1285.325, 163.0023
1285.807, 162.6427
##END=



