##NAMES=Diaspore
##RRUFFID=R060546
##IDEAL CHEMISTRY=AlO(OH)
##LOCALITY=Turkey
##OWNER=RRUFF
##SOURCE=Gemological Institute of America
##DESCRIPTION=Platy transparent pale yellow fragment
##STATUS=The identification of this mineral has been confirmed by X-ray diffraction and chemical analysis
##URL=rruff.info/R060546
##MEASURED CHEMISTRY=(Al_0.99_Fe^3+^_0.01_)_Î£=1_O(OH) ; OH estimated by difference; Fe^3+^ by charge balance
91.11523, 22.90988
91.59735, 22.99198
92.07947, 22.94057
92.56158, 22.78884
93.04370, 22.64064
93.52582, 22.56241
94.00793, 22.52925
94.49006, 22.49209
94.97218, 22.44762
95.45429, 22.39387
95.93641, 22.33064
96.41853, 22.25769
96.90064, 22.16460
97.38276, 21.98698
97.86488, 21.74440
98.34699, 21.68231
98.82911, 21.92064
99.31123, 22.32396
99.79334, 22.39981
100.2755, 22.07987
100.7576, 21.66687
101.2397, 21.39212
101.7218, 21.24213
102.2039, 21.30871
102.6861, 21.73218
103.1682, 22.50810
103.6503, 22.80628
104.1324, 22.45820
104.6145, 21.82246
105.0966, 21.30423
105.5788, 20.91250
106.0609, 20.63309
106.5430, 20.49261
107.0251, 20.55392
107.5072, 20.51837
107.9893, 20.26343
108.4715, 19.94168
108.9536, 19.82795
109.4357, 20.18923
109.9178, 20.51946
110.3999, 20.64168
110.8820, 20.29794
111.3642, 20.16884
111.8463, 20.40327
112.3284, 20.88446
112.8105, 21.28826
113.2926, 21.56113
113.7747, 21.76085
114.2569, 21.91250
114.7390, 21.95264
115.2211, 22.02479
115.7032, 22.16498
116.1853, 22.36603
116.6674, 22.59058
117.1496, 22.82642
117.6317, 23.08369
118.1138, 23.36837
118.5959, 23.64210
119.0780, 23.97998
119.5602, 24.36508
120.0423, 24.80859
120.5244, 25.45368
121.0065, 26.51938
121.4886, 27.80592
121.9707, 29.05505
122.4529, 30.25547
122.9350, 31.30516
123.4171, 32.05544
123.8992, 32.48189
124.3813, 32.84540
124.8634, 33.31852
125.3456, 33.88685
125.8277, 34.52047
126.3098, 35.25927
126.7919, 36.03306
127.2740, 36.70932
127.7561, 37.25322
128.2383, 37.79815
128.7204, 38.47096
129.2025, 39.27169
129.6846, 40.20037
130.1667, 41.16947
130.6488, 42.24641
131.1310, 43.75219
131.6131, 45.81605
132.0952, 48.15524
132.5773, 50.02711
133.0594, 51.42389
133.5415, 53.36060
134.0237, 56.54748
134.5058, 60.97656
134.9879, 66.23942
135.4700, 72.51045
135.9521, 79.46230
136.4343, 86.49809
136.9164, 93.79997
137.3985, 100.5190
137.8806, 105.9835
138.3627, 110.1390
138.8448, 113.5897
139.3270, 116.4173
139.8091, 118.6648
140.2912, 120.5112
140.7733, 121.7168
141.2554, 122.9734
141.7375, 124.9565
142.2197, 127.7812
142.7018, 131.0971
143.1839, 134.9035
143.6660, 139.2088
144.1481, 143.5587
144.6302, 147.6146
145.1124, 151.9723
145.5945, 157.2147
146.0766, 163.1190
146.5587, 170.3356
147.0408, 178.8537
147.5230, 188.3051
148.0051, 200.1234
148.4872, 211.4757
148.9693, 224.3517
149.4514, 243.6177
149.9335, 270.8383
150.4157, 302.4729
150.8978, 336.9353
151.3799, 374.7213
151.8620, 415.2554
152.3441, 462.7782
152.8262, 512.8896
153.3084, 556.2180
153.7905, 620.9556
154.2726, 656.0460
154.7547, 640.9067
155.2368, 544.3887
155.7189, 449.1894
156.2011, 357.2529
156.6832, 272.0422
157.1653, 205.1126
157.6474, 165.3421
158.1295, 138.9071
158.6116, 119.1583
159.0938, 107.4828
159.5759, 98.64034
160.0580, 91.95411
160.5401, 87.16774
161.0222, 83.46247
161.5044, 81.18761
161.9865, 79.51683
162.4686, 77.88669
162.9507, 75.98446
163.4328, 74.29175
163.9149, 73.03724
164.3971, 72.15477
164.8792, 71.38924
165.3613, 70.68517
165.8434, 70.01259
166.3255, 69.33825
166.8076, 68.44959
167.2898, 67.74122
167.7719, 67.50935
168.2540, 67.71030
168.7361, 67.97060
169.2182, 68.18049
169.7003, 68.29607
170.1825, 68.26444
170.6646, 67.99616
171.1467, 67.62212
171.6288, 67.19571
172.1109, 66.72388
172.5931, 66.30796
173.0752, 66.02106
173.5573, 65.83746
174.0394, 65.71603
174.5215, 65.69838
175.0036, 65.70464
175.4858, 65.60678
175.9679, 65.39822
176.4500, 65.25472
176.9321, 65.31910
177.4142, 65.56014
177.8963, 65.90384
178.3785, 66.50693
178.8606, 67.13904
179.3427, 67.33446
179.8248, 67.05308
180.3069, 66.75193
180.7890, 66.84457
181.2712, 67.29176
181.7533, 67.97960
182.2354, 68.92361
182.7175, 70.06091
183.1996, 71.23519
183.6818, 72.45498
184.1639, 73.71643
184.6460, 75.48265
185.1281, 77.51574
185.6102, 78.63232
186.0923, 77.89770
186.5745, 75.75064
187.0566, 73.50520
187.5387, 71.13587
188.0208, 68.86333
188.5029, 66.86555
188.9850, 65.15183
189.4672, 63.72908
189.9493, 62.62677
190.4314, 61.82673
190.9135, 61.19350
191.3956, 60.73347
191.8777, 60.41756
192.3599, 60.24302
192.8420, 60.21146
193.3241, 60.14663
193.8062, 59.92048
194.2883, 59.54960
194.7704, 59.26114
195.2526, 59.08336
195.7347, 58.95648
196.2168, 58.73476
196.6989, 58.40131
197.1810, 58.16220
197.6632, 58.16734
198.1453, 58.41529
198.6274, 58.66136
199.1095, 58.94551
199.5916, 59.14946
200.0737, 58.93404
200.5559, 58.22526
201.0380, 57.57235
201.5201, 57.34617
202.0022, 57.58785
202.4843, 57.62777
202.9664, 57.35613
203.4486, 56.94019
203.9307, 56.79206
204.4128, 56.97234
204.8949, 57.18195
205.3770, 57.21683
205.8591, 57.02835
206.3413, 57.05725
206.8234, 57.44569
207.3055, 57.97447
207.7876, 58.00755
208.2697, 57.38023
208.7519, 56.74678
209.2340, 56.45985
209.7161, 56.57648
210.1982, 56.76527
210.6803, 57.06200
211.1624, 57.38971
211.6446, 57.53450
212.1267, 57.47028
212.6088, 57.28706
213.0909, 56.98088
213.5730, 56.47112
214.0551, 56.15948
214.5373, 56.09877
215.0194, 56.23599
215.5015, 56.44147
215.9836, 56.76711
216.4657, 57.05846
216.9478, 57.27279
217.4300, 57.46741
217.9121, 57.35964
218.3942, 56.77137
218.8763, 55.92995
219.3584, 55.55087
219.8405, 55.85081
220.3227, 56.21623
220.8048, 56.32362
221.2869, 56.05676
221.7690, 55.86184
222.2511, 55.75310
222.7333, 55.72569
223.2154, 55.78458
223.6975, 55.99329
224.1796, 56.18387
224.6617, 56.28101
225.1438, 56.28229
225.6260, 56.19771
226.1081, 56.00741
226.5902, 55.73877
227.0723, 55.46070
227.5544, 55.12169
228.0365, 54.85167
228.5187, 54.70598
229.0008, 54.68429
229.4829, 54.80793
229.9650, 55.20761
230.4471, 55.71461
230.9292, 55.83591
231.4114, 55.24916
231.8935, 54.76803
232.3756, 54.81528
232.8577, 55.78531
233.3398, 56.32912
233.8220, 56.28563
234.3041, 55.86811
234.7862, 55.59398
235.2683, 55.50374
235.7504, 55.49554
236.2325, 55.55543
236.7147, 55.77319
237.1968, 55.81113
237.6789, 55.54279
238.1610, 55.14785
238.6431, 55.05245
239.1252, 55.49689
239.6074, 55.87107
240.0895, 55.89599
240.5716, 55.36226
241.0537, 55.09254
241.5358, 55.17484
242.0179, 55.47806
242.5001, 55.77185
242.9822, 56.14417
243.4643, 56.35823
243.9464, 56.26858
244.4285, 55.69393
244.9106, 55.42408
245.3928, 55.59399
245.8749, 55.98267
246.3570, 56.19731
246.8391, 56.12642
247.3212, 56.06997
247.8034, 56.12620
248.2855, 56.31784
248.7676, 56.53536
249.2497, 56.80673
249.7318, 57.08647
250.2139, 57.31460
250.6961, 57.52010
251.1782, 57.61869
251.6603, 57.53054
252.1424, 57.18321
252.6245, 57.09314
253.1066, 57.31963
253.5888, 57.74901
254.0709, 58.25050
254.5530, 58.85134
255.0351, 59.47778
255.5172, 60.15631
255.9993, 60.92106
256.4815, 61.38081
256.9636, 61.37786
257.4457, 61.23301
257.9278, 61.35209
258.4099, 61.92889
258.8921, 62.33002
259.3742, 62.42765
259.8563, 62.22110
260.3384, 61.71865
260.8205, 60.76916
261.3026, 59.73259
261.7848, 58.94988
262.2669, 58.47192
262.7490, 58.13508
263.2311, 57.96053
263.7132, 57.93153
264.1953, 57.76970
264.6775, 57.39882
265.1596, 57.01990
265.6417, 56.79467
266.1238, 56.72360
266.6059, 56.81816
267.0880, 57.14649
267.5702, 57.65873
268.0523, 57.98927
268.5344, 58.11014
269.0165, 58.11366
269.4986, 58.03127
269.9807, 57.81484
270.4629, 57.74314
270.9450, 57.92207
271.4271, 58.25563
271.9092, 58.29740
272.3913, 57.93154
272.8734, 57.60192
273.3556, 57.65035
273.8377, 58.14274
274.3198, 58.55340
274.8019, 58.82087
275.2840, 58.98920
275.7661, 59.21120
276.2483, 59.52248
276.7304, 59.73750
277.2125, 59.69201
277.6946, 59.36227
278.1768, 59.12677
278.6589, 59.00885
279.1410, 58.99567
279.6231, 59.07261
280.1052, 59.24681
280.5873, 59.47161
281.0695, 59.73345
281.5516, 60.03307
282.0337, 60.34484
282.5158, 60.68662
282.9979, 61.00114
283.4800, 61.17250
283.9622, 61.19366
284.4443, 61.21284
284.9264, 61.32651
285.4085, 61.51242
285.8906, 61.53563
286.3727, 61.34614
286.8549, 61.17051
287.3370, 61.36124
287.8191, 61.89933
288.3012, 62.40275
288.7833, 62.77327
289.2654, 62.99628
289.7476, 62.94955
290.2297, 62.60164
290.7118, 62.23327
291.1939, 62.15209
291.6760, 62.32361
292.1581, 62.53823
292.6403, 62.76518
293.1224, 62.97752
293.6045, 63.12499
294.0866, 63.20695
294.5687, 63.21820
295.0508, 63.08504
295.5330, 62.86258
296.0151, 62.73936
296.4972, 62.75217
296.9793, 62.89296
297.4614, 63.21661
297.9435, 63.70031
298.4257, 64.13528
298.9078, 64.36207
299.3899, 64.42869
299.8720, 64.38099
300.3541, 64.13535
300.8362, 63.98152
301.3184, 64.39192
301.8005, 65.25191
302.2826, 66.07164
302.7647, 66.44059
303.2469, 66.62884
303.7290, 67.07159
304.2111, 67.86250
304.6932, 68.72847
305.1753, 69.34142
305.6574, 69.80984
306.1396, 70.36697
306.6217, 71.14500
307.1038, 72.06909
307.5859, 73.05633
308.0680, 74.10628
308.5501, 75.25764
309.0323, 76.35933
309.5144, 77.61059
309.9965, 79.32059
310.4786, 81.47433
310.9607, 84.25688
311.4428, 87.73294
311.9250, 91.89405
312.4071, 96.98999
312.8892, 103.0508
313.3713, 110.0475
313.8534, 118.0257
314.3355, 127.6642
314.8177, 137.6031
315.2998, 147.5283
315.7819, 157.2794
316.2640, 166.2836
316.7461, 173.8787
317.2282, 180.7375
317.7104, 187.4201
318.1925, 193.8585
318.6746, 200.4059
319.1567, 206.9942
319.6388, 213.7884
320.1209, 221.0583
320.6031, 228.2807
321.0852, 236.4509
321.5673, 246.0286
322.0494, 256.8134
322.5315, 269.6076
323.0136, 284.1307
323.4958, 300.8361
323.9779, 320.4622
324.4600, 342.4898
324.9421, 368.1512
325.4242, 397.7589
325.9064, 431.6933
326.3885, 468.5201
326.8706, 510.2560
327.3527, 553.8938
327.8348, 596.7978
328.3170, 639.2114
328.7991, 680.7711
329.2812, 723.7639
329.7633, 768.7282
330.2454, 802.5286
330.7275, 833.3635
331.2097, 846.1263
331.6918, 829.3369
332.1739, 771.6975
332.6560, 701.2286
333.1381, 614.6591
333.6202, 516.6161
334.1024, 432.0524
334.5845, 362.8812
335.0666, 305.7007
335.5487, 259.5949
336.0308, 227.0596
336.5129, 199.8565
336.9951, 178.3892
337.4772, 161.8486
337.9593, 147.9343
338.4414, 136.8687
338.9235, 127.7233
339.4056, 120.2585
339.8878, 114.6186
340.3699, 109.5442
340.8520, 105.0213
341.3341, 101.0587
341.8162, 97.53369
342.2983, 94.47604
342.7805, 91.84520
343.2626, 89.75248
343.7447, 88.09042
344.2268, 86.41049
344.7089, 84.68286
345.1910, 83.00404
345.6732, 81.40550
346.1553, 79.89258
346.6374, 78.74491
347.1195, 78.12434
347.6016, 77.75337
348.0837, 77.01128
348.5659, 75.91650
349.0480, 74.87228
349.5301, 74.20481
350.0122, 73.80012
350.4944, 73.38522
350.9765, 72.91317
351.4586, 72.47865
351.9407, 72.27098
352.4228, 72.22160
352.9049, 72.10123
353.3871, 71.64413
353.8692, 71.11289
354.3513, 70.92696
354.8334, 71.12373
355.3155, 71.28098
355.7976, 70.97630
356.2798, 70.42077
356.7619, 69.95040
357.2440, 69.64144
357.7261, 69.50953
358.2082, 69.69207
358.6903, 70.13245
359.1725, 70.44431
359.6546, 70.29051
360.1367, 69.97646
360.6188, 69.76334
361.1009, 69.70541
361.5830, 69.77528
362.0652, 70.04671
362.5473, 70.44392
363.0294, 70.77959
363.5115, 70.99189
363.9936, 71.12794
364.4757, 71.19614
364.9579, 71.17505
365.4400, 71.16767
365.9221, 71.13132
366.4042, 71.14080
366.8863, 71.29081
367.3684, 71.75007
367.8506, 72.19511
368.3327, 72.55308
368.8148, 72.81502
369.2969, 73.05543
369.7790, 73.23463
370.2611, 73.42336
370.7433, 73.67466
371.2254, 74.04163
371.7075, 74.37995
372.1896, 74.65244
372.6717, 74.88567
373.1538, 75.19910
373.6360, 75.66846
374.1181, 76.09192
374.6002, 76.30605
375.0823, 76.14860
375.5645, 76.39436
376.0466, 77.15437
376.5287, 78.18920
377.0108, 79.08054
377.4929, 79.75170
377.9750, 80.58205
378.4572, 81.75638
378.9393, 83.23019
379.4214, 84.52591
379.9035, 85.61160
380.3856, 86.61147
380.8677, 87.62564
381.3499, 88.65157
381.8320, 89.68620
382.3141, 90.83772
382.7962, 91.88631
383.2783, 92.56189
383.7604, 92.83437
384.2426, 92.33826
384.7247, 90.42153
385.2068, 87.59903
385.6889, 84.88801
386.1710, 82.37671
386.6531, 80.18714
387.1353, 78.42444
387.6174, 77.07259
388.0995, 76.06802
388.5816, 75.34132
389.0637, 74.96321
389.5458, 75.24606
390.0280, 76.16709
390.5101, 76.78457
390.9922, 76.08234
391.4743, 74.89379
391.9564, 74.14311
392.4385, 74.35720
392.9207, 74.77157
393.4028, 75.03836
393.8849, 75.19606
394.3670, 75.36137
394.8491, 75.44219
395.3312, 75.63964
395.8134, 76.13860
396.2955, 77.16228
396.7776, 77.92030
397.2597, 78.05699
397.7418, 77.88181
398.2239, 77.79867
398.7061, 77.90219
399.1882, 78.05787
399.6703, 78.28459
400.1524, 78.59115
400.6346, 78.75563
401.1167, 78.68598
401.5988, 78.55334
402.0809, 78.45626
402.5630, 78.32717
403.0451, 78.38467
403.5273, 78.76094
404.0094, 79.29660
404.4915, 79.46541
404.9736, 79.04679
405.4557, 78.79860
405.9378, 79.19164
406.4200, 80.32654
406.9021, 80.84972
407.3842, 80.60494
407.8663, 80.10369
408.3484, 79.98936
408.8305, 80.26939
409.3127, 80.58934
409.7948, 80.85720
410.2769, 81.09635
410.7590, 81.38322
411.2411, 81.72068
411.7232, 82.02572
412.2054, 82.17888
412.6875, 82.25405
413.1696, 82.45947
413.6517, 82.84605
414.1338, 83.30470
414.6159, 83.65682
415.0981, 83.96706
415.5802, 84.41234
416.0623, 85.08659
416.5444, 85.93527
417.0265, 86.98779
417.5086, 88.24540
417.9908, 89.33910
418.4729, 89.77757
418.9550, 90.02488
419.4371, 90.55684
419.9192, 91.45632
420.4013, 92.74081
420.8835, 94.78206
421.3656, 97.26465
421.8477, 99.27955
422.3298, 99.47846
422.8119, 99.99514
423.2940, 102.0543
423.7762, 106.4795
424.2583, 110.2035
424.7404, 111.9695
425.2225, 113.1995
425.7047, 115.5682
426.1868, 119.5076
426.6689, 123.9523
427.1510, 128.4247
427.6331, 133.0692
428.1152, 139.5991
428.5974, 147.8792
429.0795, 158.4003
429.5616, 171.2049
430.0437, 185.6855
430.5258, 204.7422
431.0079, 228.4855
431.4901, 256.7167
431.9722, 290.4701
432.4543, 330.2036
432.9364, 369.6569
433.4185, 406.5865
433.9006, 440.8577
434.3828, 470.4461
434.8649, 495.1429
435.3470, 517.7263
435.8291, 539.4672
436.3112, 561.0934
436.7933, 583.9172
437.2755, 607.2053
437.7576, 634.1434
438.2397, 667.3118
438.7218, 706.9745
439.2039, 754.0035
439.6860, 805.4719
440.1682, 867.0275
440.6503, 943.1056
441.1324, 1034.633
441.6145, 1138.212
442.0966, 1256.495
442.5787, 1383.885
443.0609, 1514.380
443.5430, 1647.098
444.0251, 1781.521
444.5072, 1916.346
444.9893, 2052.284
445.4714, 2193.346
445.9536, 2361.146
446.4357, 2518.184
446.9178, 2660.793
447.3999, 2823.411
447.8820, 2874.039
448.3641, 2792.753
448.8463, 2611.206
449.3284, 2350.545
449.8105, 1952.440
450.2926, 1585.321
450.7747, 1271.792
451.2569, 1010.313
451.7390, 803.0104
452.2211, 655.1979
452.7032, 543.0242
453.1853, 457.1408
453.6674, 397.7729
454.1496, 349.0655
454.6317, 311.0875
455.1138, 280.7666
455.5959, 255.1417
456.0780, 233.8637
456.5602, 215.5406
457.0423, 200.0242
457.5244, 186.9442
458.0065, 175.6069
458.4886, 166.0601
458.9707, 157.6820
459.4529, 150.3962
459.9350, 143.9355
460.4171, 138.1364
460.8992, 132.8609
461.3813, 128.2542
461.8634, 124.7959
462.3456, 121.9987
462.8277, 119.1180
463.3098, 115.4340
463.7919, 111.9083
464.2740, 109.1171
464.7561, 107.0263
465.2383, 104.9663
465.7204, 102.5683
466.2025, 100.2466
466.6846, 98.28723
467.1667, 96.90030
467.6488, 95.59270
468.1310, 94.39663
468.6131, 93.23892
469.0952, 91.95999
469.5773, 90.42489
470.0594, 88.99078
470.5415, 87.74841
471.0237, 86.69743
471.5058, 85.65301
471.9879, 84.60436
472.4700, 83.58432
472.9521, 82.66077
473.4342, 81.83973
473.9164, 80.90163
474.3985, 79.77390
474.8806, 78.61120
475.3627, 77.62459
475.8448, 76.81539
476.3270, 76.19764
476.8091, 75.80119
477.2912, 75.59531
477.7733, 75.53777
478.2554, 75.62691
478.7375, 75.83933
479.2197, 76.09399
479.7018, 76.48463
480.1839, 77.07797
480.6660, 77.77427
481.1481, 78.98137
481.6302, 80.94063
482.1124, 83.59361
482.5945, 86.84193
483.0766, 90.94618
483.5587, 95.38255
484.0408, 100.1270
484.5229, 105.1244
485.0051, 109.6480
485.4872, 113.5404
485.9693, 116.9470
486.4514, 119.8483
486.9335, 121.4841
487.4156, 123.9879
487.8978, 127.6179
488.3799, 131.9680
488.8620, 136.3907
489.3441, 140.4187
489.8262, 145.7113
490.3083, 152.6917
490.7905, 161.3630
491.2726, 171.4912
491.7547, 183.1958
492.2368, 196.0984
492.7189, 209.7612
493.2010, 224.3116
493.6832, 239.4311
494.1653, 255.2975
494.6474, 271.4479
495.1295, 287.1697
495.6116, 302.8249
496.0938, 319.7997
496.5759, 340.0309
497.0580, 360.7030
497.5401, 381.9769
498.0222, 402.3335
498.5044, 412.9677
498.9865, 410.8560
499.4686, 395.8839
499.9507, 365.1158
500.4328, 313.7956
500.9149, 264.0369
501.3971, 219.7043
501.8792, 181.8859
502.3613, 151.6916
502.8434, 132.2499
503.3255, 116.7272
503.8076, 104.7211
504.2898, 95.86208
504.7719, 88.73273
505.2540, 83.86038
505.7361, 79.95953
506.2182, 76.49486
506.7003, 73.46206
507.1825, 71.09414
507.6646, 69.54680
508.1467, 68.33186
508.6288, 66.86573
509.1109, 65.15102
509.5930, 63.73172
510.0752, 62.76809
510.5573, 62.08074
511.0394, 61.36684
511.5215, 60.63259
512.0037, 59.91425
512.4858, 59.13427
512.9679, 58.42491
513.4500, 58.02150
513.9321, 57.92761
514.4142, 57.89252
514.8964, 57.86862
515.3785, 57.75378
515.8606, 57.42291
516.3427, 56.72683
516.8248, 56.02044
517.3069, 55.27925
517.7891, 54.64066
518.2712, 54.35877
518.7533, 54.89796
519.2354, 55.39116
519.7175, 55.50846
520.1996, 55.26004
520.6818, 55.28815
521.1639, 55.85366
521.6460, 56.37529
522.1281, 56.46223
522.6102, 55.94884
523.0923, 55.65987
523.5745, 55.66103
524.0566, 55.80830
524.5387, 55.90224
525.0208, 55.94330
525.5029, 55.98628
525.9850, 56.02103
526.4672, 56.09041
526.9493, 56.37792
527.4314, 56.84849
527.9135, 57.17395
528.3956, 56.97312
528.8777, 56.58671
529.3599, 56.50272
529.8420, 56.77525
530.3241, 57.12120
530.8062, 57.41788
531.2883, 57.66245
531.7704, 57.84156
532.2526, 57.87689
532.7347, 57.95148
533.2168, 58.13161
533.6989, 58.39140
534.1810, 58.67482
534.6631, 58.75159
535.1453, 59.08647
535.6274, 59.80922
536.1095, 60.93490
536.5916, 62.21998
537.0737, 63.70658
537.5558, 65.31083
538.0380, 66.99826
538.5201, 68.80186
539.0022, 70.56880
539.4843, 72.26138
539.9664, 73.93190
540.4485, 75.54316
540.9307, 77.11671
541.4128, 78.92778
541.8949, 81.13735
542.3770, 83.53299
542.8591, 85.64825
543.3412, 87.57498
543.8234, 89.93770
544.3055, 93.12477
544.7876, 96.92199
545.2697, 101.0789
545.7518, 105.5619
546.2339, 110.5279
546.7161, 116.4087
547.1982, 122.5842
547.6803, 128.6387
548.1624, 134.1529
548.6445, 139.8900
549.1266, 146.0103
549.6088, 152.4195
550.0909, 158.9397
550.5730, 165.8038
551.0551, 172.5311
551.5372, 179.5297
552.0193, 186.5286
552.5015, 190.5942
552.9836, 191.8804
553.4657, 189.7277
553.9478, 183.0069
554.4299, 172.0302
554.9120, 159.4832
555.3942, 145.3028
555.8763, 131.3033
556.3584, 119.2276
556.8405, 108.9955
557.3226, 100.4730
557.8047, 93.90280
558.2869, 88.56828
558.7690, 83.95128
559.2511, 80.02103
559.7332, 76.75944
560.2154, 74.50100
560.6975, 72.61871
561.1796, 70.75517
561.6617, 68.88708
562.1439, 67.31429
562.6260, 66.28423
563.1081, 65.43535
563.5902, 64.53116
564.0723, 63.51067
564.5544, 62.54700
565.0366, 61.56651
565.5187, 60.70223
566.0008, 60.23772
566.4829, 60.28413
566.9650, 60.06189
567.4471, 59.33030
567.9293, 58.29539
568.4114, 57.43968
568.8935, 56.75782
569.3756, 56.24309
569.8577, 55.92990
570.3398, 55.77090
570.8220, 55.77935
571.3041, 55.94072
571.7862, 55.96849
572.2683, 55.52593
572.7504, 54.92192
573.2325, 54.45037
573.7147, 54.18282
574.1968, 54.02781
574.6789, 54.06438
575.1610, 54.15723
575.6431, 54.13141
576.1252, 53.80999
576.6074, 53.54916
577.0895, 53.41862
577.5716, 53.38492
578.0537, 53.31604
578.5358, 53.19799
579.0179, 53.07449
579.5001, 52.93134
579.9822, 52.77778
580.4643, 52.85894
580.9464, 53.22120
581.4285, 53.49676
581.9106, 53.26246
582.3928, 52.67493
582.8749, 52.24516
583.3570, 52.03771
583.8391, 51.99358
584.3212, 52.13604
584.8033, 52.38680
585.2855, 52.61363
585.7676, 52.77599
586.2497, 52.89402
586.7318, 52.94288
587.2139, 52.95288
587.6960, 53.01072
588.1782, 53.09628
588.6603, 53.27364
589.1424, 53.62459
589.6245, 54.16479
590.1066, 54.51249
590.5887, 54.52364
591.0709, 54.54493
591.5530, 54.82235
592.0351, 55.40361
592.5172, 55.86954
592.9993, 56.18101
593.4814, 56.45319
593.9636, 56.81313
594.4457, 57.25522
594.9278, 57.77660
595.4099, 58.40627
595.8920, 59.06415
596.3741, 59.64947
596.8563, 60.17736
597.3384, 60.68060
597.8205, 61.00457
598.3026, 61.44921
598.7847, 62.25193
599.2668, 63.38560
599.7490, 64.54168
600.2311, 65.68065
600.7132, 66.77516
601.1953, 67.81693
601.6774, 68.80893
602.1595, 69.74944
602.6417, 70.58925
603.1238, 71.45069
603.6059, 72.48598
604.0880, 73.76745
604.5701, 74.80997
605.0522, 75.50504
605.5344, 76.02932
606.0165, 76.71922
606.4986, 77.52821
606.9807, 78.11852
607.4628, 78.36869
607.9449, 78.32561
608.4271, 78.05689
608.9092, 77.55058
609.3913, 76.76326
609.8735, 75.35615
610.3556, 73.90983
610.8377, 72.92882
611.3198, 72.47264
611.8019, 71.69292
612.2841, 70.00809
612.7662, 68.17558
613.2483, 66.66557
613.7304, 65.69116
614.2125, 64.58860
614.6946, 63.12012
615.1768, 61.76332
615.6589, 61.20965
616.1410, 61.59983
616.6231, 61.73191
617.1052, 61.35447
617.5873, 60.67165
618.0695, 60.00248
618.5516, 59.36632
619.0337, 58.89030
619.5158, 58.70415
619.9979, 58.66334
620.4800, 58.60392
620.9622, 58.53599
621.4443, 58.51059
621.9264, 58.67671
622.4085, 58.79900
622.8906, 58.62940
623.3727, 58.06107
623.8549, 57.83342
624.3370, 58.36374
624.8191, 59.08034
625.3012, 59.62201
625.7833, 59.99580
626.2654, 60.14707
626.7476, 59.95037
627.2297, 59.69862
627.7118, 59.86230
628.1939, 60.45491
628.6760, 60.90159
629.1581, 61.01931
629.6403, 61.01859
630.1224, 61.26340
630.6045, 61.70820
631.0866, 62.17929
631.5687, 62.58727
632.0508, 62.98978
632.5330, 63.51902
633.0151, 64.12031
633.4972, 64.51290
633.9793, 64.28263
634.4614, 64.05861
634.9435, 64.19933
635.4257, 64.81091
635.9078, 65.38381
636.3899, 65.93102
636.8720, 66.40857
637.3541, 66.73959
637.8362, 66.85735
638.3184, 67.14912
638.8005, 67.64292
639.2826, 68.27141
639.7647, 68.94630
640.2468, 69.67754
640.7289, 70.50265
641.2111, 71.41545
641.6932, 72.45432
642.1753, 73.74057
642.6574, 75.20497
643.1395, 76.65577
643.6216, 77.75874
644.1038, 79.07418
644.5859, 81.06595
645.0680, 83.58582
645.5501, 85.98225
646.0322, 87.71211
646.5143, 89.66377
646.9965, 92.09417
647.4786, 95.03233
647.9607, 98.33073
648.4428, 102.1074
648.9249, 106.0746
649.4070, 110.0737
649.8892, 114.0982
650.3713, 118.4881
650.8534, 123.2810
651.3355, 128.5393
651.8176, 134.3552
652.2997, 140.6987
652.7819, 147.5625
653.2640, 155.0313
653.7461, 162.7173
654.2282, 170.0011
654.7103, 177.3209
655.1924, 185.2957
655.6746, 194.6209
656.1567, 204.2106
656.6388, 213.6382
657.1209, 223.0948
657.6030, 232.9343
658.0851, 243.3390
658.5673, 254.0132
659.0494, 265.0177
659.5316, 276.2468
660.0137, 287.1445
660.4958, 297.6315
660.9779, 307.6306
661.4600, 317.1576
661.9421, 326.2004
662.4243, 335.2856
662.9064, 344.3778
663.3885, 351.7921
663.8706, 356.4086
664.3527, 358.5462
664.8348, 358.4288
665.3170, 356.0338
665.7991, 351.6351
666.2812, 345.0988
666.7633, 336.7188
667.2454, 326.6190
667.7275, 314.3027
668.2097, 301.4130
668.6918, 287.7850
669.1739, 273.7091
669.6560, 259.4440
670.1381, 244.9140
670.6202, 230.9354
671.1024, 217.7483
671.5845, 205.3504
672.0666, 194.1108
672.5487, 183.8997
673.0308, 174.3717
673.5129, 165.5972
673.9951, 157.3669
674.4772, 149.4817
674.9593, 141.9660
675.4414, 135.0886
675.9235, 129.1517
676.4056, 123.6772
676.8878, 118.4950
677.3699, 113.5544
677.8520, 109.2195
678.3341, 105.7023
678.8162, 102.5276
679.2983, 99.47242
679.7805, 96.54125
680.2626, 93.82502
680.7447, 91.35252
681.2268, 89.05655
681.7089, 86.87694
682.1910, 84.84087
682.6732, 83.09698
683.1553, 81.68913
683.6374, 80.45689
684.1195, 79.26275
684.6016, 78.16366
685.0837, 77.21226
685.5659, 76.49666
686.0480, 75.84512
686.5301, 75.32937
687.0122, 74.81536
687.4943, 74.05257
687.9764, 72.80219
688.4586, 71.80113
688.9407, 71.21438
689.4228, 70.91705
689.9049, 70.59214
690.3870, 70.23613
690.8691, 69.86757
691.3513, 69.43636
691.8334, 69.04427
692.3155, 68.95841
692.7976, 69.10813
693.2797, 69.15870
693.7618, 68.83381
694.2440, 68.40997
694.7261, 68.04966
695.2082, 67.76865
695.6903, 67.54501
696.1724, 67.48749
696.6545, 67.38284
697.1367, 67.08806
697.6188, 66.54146
698.1009, 66.28725
698.5830, 66.43586
699.0651, 66.62946
699.5472, 66.55462
700.0294, 66.24551
700.5115, 66.02299
700.9936, 65.92582
701.4757, 65.78046
701.9578, 65.34930
702.4399, 64.77306
702.9221, 64.25874
703.4042, 63.85429
703.8863, 63.50908
704.3684, 63.37740
704.8505, 63.22063
705.3326, 62.75751
705.8148, 61.47091
706.2969, 60.49750
706.7790, 59.96626
707.2611, 59.74917
707.7432, 59.67200
708.2253, 59.76078
708.7075, 59.82833
709.1896, 59.85180
709.6718, 59.79777
710.1539, 59.53267
710.6360, 59.11178
711.1181, 58.75570
711.6002, 58.65454
712.0823, 58.59802
712.5645, 58.37969
713.0466, 58.04497
713.5287, 57.76725
714.0108, 57.51325
714.4929, 57.41512
714.9750, 57.62852
715.4572, 58.11344
715.9393, 58.38282
716.4214, 58.37928
716.9035, 58.28215
717.3856, 58.17450
717.8677, 58.05008
718.3499, 57.82928
718.8320, 57.50460
719.3141, 57.23384
719.7962, 57.17363
720.2783, 57.22852
720.7604, 57.24656
721.2426, 57.21237
721.7247, 57.20471
722.2068, 57.33960
722.6889, 57.47226
723.1710, 57.48116
723.6531, 57.28581
724.1353, 57.13673
724.6174, 57.03352
725.0995, 56.99213
725.5816, 57.01277
726.0637, 57.08292
726.5458, 57.34161
727.0280, 57.85649
727.5101, 58.37630
727.9922, 58.57802
728.4743, 58.52997
728.9564, 58.42295
729.4385, 58.29460
729.9207, 58.13955
730.4028, 57.88769
730.8849, 57.62619
731.3670, 57.48042
731.8491, 57.55384
732.3312, 57.66511
732.8134, 57.84508
733.2955, 58.02199
733.7776, 58.07515
734.2597, 57.98683
734.7418, 57.81778
735.2239, 57.52849
735.7061, 57.22806
736.1882, 57.26826
736.6703, 57.58549
737.1524, 57.68083
737.6345, 57.13111
738.1166, 56.48753
738.5988, 56.49346
739.0809, 56.92449
739.5630, 57.13958
740.0451, 56.65356
740.5272, 56.11203
741.0093, 55.75611
741.4915, 55.57716
741.9736, 55.50643
742.4557, 55.67181
742.9378, 55.68274
743.4199, 55.29861
743.9020, 54.63588
744.3842, 54.48071
744.8663, 54.83278
745.3484, 55.09513
745.8305, 54.75649
746.3126, 54.17113
746.7947, 53.85983
747.2769, 53.81558
747.7590, 53.87557
748.2411, 54.16082
748.7232, 54.35374
749.2053, 54.20278
749.6874, 53.63227
750.1696, 53.24043
750.6517, 53.11472
751.1338, 53.06703
751.6159, 53.00779
752.0980, 52.93622
752.5801, 52.83860
753.0623, 52.70933
753.5444, 52.59466
754.0265, 52.55840
754.5086, 52.55569
754.9907, 52.52125
755.4728, 52.45084
755.9550, 52.28186
756.4371, 51.73076
756.9192, 51.22316
757.4013, 51.16698
757.8835, 51.90208
758.3656, 52.28694
758.8477, 52.06673
759.3298, 51.70348
759.8120, 51.55537
760.2941, 51.64321
760.7762, 51.82092
761.2583, 52.11065
761.7404, 52.37101
762.2225, 52.43266
762.7047, 52.34829
763.1868, 52.23225
763.6689, 52.10620
764.1510, 51.95264
764.6331, 51.74590
765.1152, 51.51223
765.5974, 51.27521
766.0795, 50.93299
766.5616, 50.76068
767.0437, 50.83862
767.5258, 51.02857
768.0079, 51.20162
768.4901, 51.37240
768.9722, 51.37670
769.4543, 51.15056
769.9364, 50.87152
770.4185, 50.78392
770.9006, 50.83716
771.3828, 50.90162
771.8649, 50.93089
772.3470, 50.98407
772.8291, 51.13268
773.3112, 51.31932
773.7933, 51.46469
774.2755, 51.60339
774.7576, 51.62219
775.2397, 51.42403
775.7218, 51.16916
776.2039, 51.15782
776.6860, 51.43512
777.1682, 51.55291
777.6503, 51.40498
778.1324, 51.09616
778.6145, 50.62377
779.0966, 50.11999
779.5787, 49.96070
780.0609, 50.57272
780.5430, 51.13153
781.0251, 50.99576
781.5072, 50.49456
781.9893, 50.23016
782.4714, 50.53115
782.9536, 50.80085
783.4357, 50.99463
783.9178, 50.49345
784.3999, 51.01665
784.8820, 51.23577
785.3641, 51.16716
785.8463, 49.94888
786.3284, 50.21511
786.8105, 49.88646
787.2926, 49.53339
787.7747, 50.00854
788.2568, 48.95754
788.7390, 49.41952
789.2211, 49.27756
789.7032, 49.41204
790.1853, 48.94793
790.6674, 48.66870
791.1495, 48.32012
791.6317, 48.09440
792.1138, 47.97508
792.5959, 47.84782
793.0780, 47.71195
793.5601, 47.56039
794.0422, 47.40927
794.5244, 47.21295
795.0065, 46.78882
795.4886, 46.26577
795.9707, 45.96337
796.4528, 46.37994
796.9349, 46.65021
797.4171, 46.23470
797.8992, 45.41320
798.3813, 45.00336
798.8634, 45.22569
799.3455, 45.40143
799.8276, 45.39140
800.3098, 45.24059
800.7919, 45.02694
801.2740, 44.75696
801.7561, 44.50755
802.2382, 44.28487
802.7203, 44.13062
803.2025, 44.17649
803.6846, 44.32158
804.1667, 44.33661
804.6488, 43.98704
805.1309, 43.66509
805.6130, 43.49277
806.0952, 43.42863
806.5773, 43.41200
807.0594, 43.49428
807.5416, 43.43458
808.0237, 43.11872
808.5058, 42.69669
808.9879, 42.50916
809.4700, 42.50790
809.9521, 42.48565
810.4343, 42.30135
810.9164, 42.13453
811.3985, 42.15101
811.8806, 42.28352
812.3627, 42.39088
812.8448, 42.46472
813.3270, 42.46817
813.8091, 42.34422
814.2912, 42.17578
814.7733, 42.18056
815.2554, 42.38459
815.7375, 42.48498
816.2197, 42.38213
816.7018, 42.16867
817.1839, 41.92755
817.6660, 41.70125
818.1481, 41.60119
818.6302, 41.80266
819.1124, 41.97581
819.5945, 41.95037
820.0766, 41.79732
820.5587, 41.64994
821.0408, 41.51678
821.5229, 41.39301
822.0051, 41.27139
822.4872, 41.16558
822.9693, 41.13123
823.4514, 41.15400
823.9335, 41.06419
824.4156, 40.75361
824.8978, 40.45852
825.3799, 40.42631
825.8620, 40.57823
826.3441, 40.78791
826.8262, 41.17127
827.3083, 41.40527
827.7905, 41.33143
828.2726, 41.11222
828.7547, 40.91640
829.2368, 40.72231
829.7189, 40.68242
830.2010, 40.86314
830.6832, 41.08549
831.1653, 41.09612
831.6474, 40.94573
832.1295, 40.74802
832.6116, 40.48853
833.0938, 40.32819
833.5759, 40.56339
834.0580, 40.86563
834.5401, 40.86311
835.0222, 40.10288
835.5043, 39.63941
835.9865, 39.55452
836.4686, 39.66413
836.9507, 39.80965
837.4328, 39.98737
837.9149, 40.10521
838.3970, 40.15747
838.8792, 40.12498
839.3613, 39.92640
839.8434, 39.65645
840.3255, 39.42654
840.8076, 39.23202
841.2897, 39.17606
841.7719, 39.43660
842.2540, 39.74507
842.7361, 39.90605
843.2182, 39.89696
843.7003, 39.80466
844.1824, 39.60203
844.6646, 39.41867
845.1467, 39.42196
845.6288, 39.52941
846.1109, 39.50123
846.5930, 39.31647
847.0751, 39.15823
847.5573, 39.12095
848.0394, 39.17783
848.5215, 39.35598
849.0036, 39.70324
849.4857, 39.85488
849.9678, 39.73311
850.4500, 39.52989
850.9321, 39.27697
851.4142, 39.00195
851.8963, 39.12712
852.3784, 39.64081
852.8605, 40.05817
853.3427, 39.91908
853.8248, 39.58379
854.3069, 39.43309
854.7890, 39.46157
855.2711, 39.43780
855.7532, 39.21705
856.2354, 39.00556
856.7175, 38.88435
857.1996, 38.83906
857.6818, 38.74028
858.1639, 38.56973
858.6460, 38.47876
859.1281, 38.56758
859.6102, 38.75712
860.0923, 38.92816
860.5745, 39.07637
861.0566, 39.18165
861.5387, 39.30072
862.0208, 39.30813
862.5029, 39.03857
862.9850, 38.60976
863.4672, 38.41253
863.9493, 38.54652
864.4314, 38.65257
864.9135, 38.64031
865.3956, 38.57054
865.8777, 38.58446
866.3599, 38.65767
866.8420, 38.68787
867.3241, 38.64452
867.8062, 38.54029
868.2883, 38.31293
868.7704, 38.05194
869.2526, 37.89389
869.7347, 37.87296
870.2168, 37.97250
870.6989, 38.28937
871.1810, 38.60819
871.6631, 38.60081
872.1453, 38.28785
872.6274, 38.04841
873.1095, 37.93626
873.5916, 37.92304
874.0737, 38.04445
874.5558, 38.21996
875.0380, 38.38000
875.5201, 38.57131
876.0022, 38.54704
876.4843, 37.98313
876.9664, 37.40761
877.4485, 37.18176
877.9307, 37.36530
878.4128, 37.47188
878.8949, 37.49641
879.3770, 37.49183
879.8591, 37.47410
880.3412, 37.46838
880.8234, 37.56746
881.3055, 37.76654
881.7876, 37.82615
882.2697, 37.46415
882.7518, 37.09483
883.2339, 36.94123
883.7161, 36.99289
884.1982, 37.04834
884.6803, 37.08762
885.1624, 37.22097
885.6445, 37.62368
886.1266, 38.08976
886.6088, 38.00615
887.0909, 37.51339
887.5730, 37.19299
888.0551, 37.48420
888.5372, 37.87529
889.0193, 38.31569
889.5015, 38.64323
889.9836, 38.33906
890.4657, 36.91381
890.9478, 36.08839
891.4299, 36.39120
891.9120, 37.21156
892.3942, 37.40699
892.8763, 37.09796
893.3584, 36.75025
893.8405, 36.40360
894.3226, 36.27210
894.8047, 36.81706
895.2869, 37.53960
895.7690, 37.81435
896.2511, 37.12322
896.7332, 36.62403
897.2153, 36.33598
897.6974, 36.22807
898.1796, 36.35524
898.6617, 36.67115
899.1438, 36.83732
899.6259, 36.82056
900.1080, 36.71645
900.5901, 36.50525
901.0723, 36.31171
901.5544, 36.29697
902.0365, 36.52377
902.5186, 36.56493
903.0007, 36.18918
903.4828, 35.90325
903.9650, 36.02413
904.4471, 36.48383
904.9292, 36.60481
905.4113, 36.40306
905.8935, 36.18694
906.3756, 36.16986
906.8577, 36.21472
907.3398, 36.20381
907.8220, 36.13926
908.3041, 36.04321
908.7862, 35.79983
909.2683, 35.68571
909.7504, 35.82204
910.2325, 36.08443
910.7147, 36.12397
911.1968, 35.94647
911.6789, 35.88949
912.1610, 36.09351
912.6431, 36.35283
913.1252, 36.47542
913.6074, 36.48446
914.0895, 36.40303
914.5716, 36.06281
915.0537, 35.94177
915.5358, 36.34319
916.0179, 36.76468
916.5001, 36.64808
916.9822, 35.94811
917.4643, 35.64758
917.9464, 35.83001
918.4285, 36.16284
918.9106, 36.46136
919.3928, 36.65731
919.8749, 36.64003
920.3570, 36.39447
920.8391, 36.11762
921.3212, 35.74373
921.8033, 35.48494
922.2855, 35.45305
922.7676, 35.62716
923.2497, 35.82322
923.7318, 36.04473
924.2139, 36.13694
924.6960, 35.88062
925.1782, 35.56162
925.6603, 35.61352
926.1424, 35.90880
926.6245, 36.10917
927.1066, 36.01026
927.5887, 35.90332
928.0709, 35.86173
928.5530, 35.84023
929.0351, 35.73524
929.5172, 35.53949
929.9993, 35.44097
930.4814, 35.49524
930.9636, 35.58179
931.4457, 35.57140
931.9278, 35.50383
932.4099, 35.42414
932.8920, 35.32550
933.3741, 35.27309
933.8563, 35.39466
934.3384, 35.45842
934.8205, 35.27185
935.3026, 34.81438
935.7847, 34.57063
936.2668, 34.54707
936.7490, 34.54839
937.2311, 34.31420
937.7132, 34.10185
938.1953, 34.35628
938.6774, 34.98138
939.1595, 35.32191
939.6417, 34.87577
940.1238, 34.47557
940.6059, 34.32117
941.0880, 34.37157
941.5701, 34.61554
942.0522, 35.04097
942.5344, 35.12188
943.0165, 34.52577
943.4986, 33.89659
943.9807, 34.02588
944.4628, 34.55019
944.9449, 34.93673
945.4271, 35.08349
945.9092, 35.01208
946.3913, 34.59952
946.8734, 34.14918
947.3555, 33.95376
947.8376, 34.00008
948.3198, 34.09138
948.8019, 34.21925
949.2840, 34.31760
949.7661, 34.26163
950.2482, 34.20114
950.7303, 34.32557
951.2125, 34.64117
951.6946, 34.78584
952.1767, 34.65387
952.6588, 34.46138
953.1409, 34.26023
953.6230, 34.06215
954.1052, 33.85247
954.5873, 33.65659
955.0695, 33.64808
955.5516, 34.04867
956.0337, 34.44885
956.5158, 34.49643
956.9979, 34.34588
957.4800, 34.24489
957.9622, 34.21687
958.4443, 34.26466
958.9264, 34.42829
959.4085, 34.58950
959.8906, 34.61348
960.3727, 34.52402
960.8549, 34.33471
961.3370, 34.04028
961.8191, 33.96815
962.3012, 34.66570
962.7833, 35.39112
963.2654, 35.54922
963.7476, 35.11323
964.2297, 34.83587
964.7118, 34.73893
965.1939, 34.74910
965.6760, 34.87762
966.1581, 35.05606
966.6403, 35.13976
967.1224, 35.14779
967.6045, 35.13824
968.0866, 35.08731
968.5687, 35.08178
969.0508, 35.22914
969.5330, 35.40341
970.0151, 35.42438
970.4972, 35.25629
970.9793, 35.08055
971.4614, 34.88738
971.9435, 34.81103
972.4257, 35.13498
972.9078, 35.60530
973.3899, 35.80217
973.8720, 35.66188
974.3541, 35.58532
974.8362, 35.76762
975.3184, 35.99169
975.8005, 36.17645
976.2826, 36.32149
976.7647, 36.38866
977.2468, 36.37881
977.7289, 36.39729
978.2111, 36.55679
978.6932, 36.68890
979.1753, 36.55288
979.6574, 36.26702
980.1395, 36.05492
980.6216, 36.10536
981.1038, 36.02879
981.5859, 35.70251
982.0680, 35.37910
982.5501, 35.39888
983.0322, 35.71083
983.5143, 35.98318
983.9965, 36.18818
984.4786, 36.28217
984.9607, 36.09664
985.4428, 35.89384
985.9249, 35.90455
986.4070, 36.15053
986.8892, 36.29820
987.3713, 36.31237
987.8534, 36.32035
988.3355, 36.39581
988.8176, 36.46816
989.2997, 36.27456
989.7819, 35.93729
990.2640, 35.82817
990.7461, 36.28649
991.2282, 36.70961
991.7103, 36.85350
992.1924, 36.82823
992.6746, 36.72283
993.1567, 36.47075
993.6388, 36.55733
994.1209, 37.06421
994.6030, 37.52675
995.0851, 37.37202
995.5673, 37.00282
996.0494, 36.97419
996.5315, 37.30045
997.0136, 37.63934
997.4957, 37.90100
997.9778, 38.14644
998.4600, 38.40242
998.9421, 38.64538
999.4242, 38.77591
999.9063, 38.80486
1000.388, 38.85421
1000.871, 38.96938
1001.353, 39.09989
1001.835, 39.19891
1002.317, 39.28812
1002.799, 39.39432
1003.281, 39.52259
1003.763, 39.67164
1004.245, 39.85671
1004.728, 40.02998
1005.210, 40.15690
1005.692, 40.24446
1006.174, 40.27906
1006.656, 40.27940
1007.138, 40.36491
1007.620, 40.73903
1008.102, 41.06736
1008.584, 41.15870
1009.067, 41.09899
1009.549, 41.08854
1010.031, 41.14051
1010.513, 41.10919
1010.995, 40.93269
1011.477, 40.78062
1011.959, 40.92566
1012.441, 41.19666
1012.924, 41.33650
1013.406, 41.24949
1013.888, 41.26748
1014.370, 41.51378
1014.852, 41.77354
1015.334, 41.94636
1015.816, 42.03983
1016.298, 42.13320
1016.780, 42.21085
1017.263, 42.16091
1017.745, 41.77958
1018.227, 41.39763
1018.709, 41.17232
1019.191, 41.11419
1019.673, 41.26680
1020.155, 41.77911
1020.637, 42.02919
1021.120, 41.91596
1021.602, 41.71685
1022.084, 41.70443
1022.566, 41.83583
1023.048, 42.08669
1023.530, 42.45067
1024.012, 42.70517
1024.494, 42.54136
1024.976, 42.49567
1025.458, 42.84581
1025.941, 43.46597
1026.423, 43.84700
1026.905, 43.99598
1027.387, 43.97605
1027.869, 43.71737
1028.351, 43.49334
1028.833, 43.54315
1029.316, 43.78720
1029.798, 44.14549
1030.280, 44.74032
1030.762, 45.08851
1031.244, 45.07140
1031.726, 45.09966
1032.208, 45.55224
1032.690, 46.27504
1033.172, 46.79085
1033.655, 47.15293
1034.137, 47.67631
1034.619, 48.65236
1035.101, 49.66531
1035.583, 50.52900
1036.065, 51.32482
1036.547, 52.14746
1037.029, 52.98384
1037.511, 54.07197
1037.994, 55.46170
1038.476, 56.99178
1038.958, 58.50326
1039.440, 60.03254
1039.922, 61.57093
1040.404, 63.12380
1040.886, 64.75902
1041.368, 66.37316
1041.851, 68.32207
1042.333, 70.81229
1042.815, 73.73676
1043.297, 76.91373
1043.779, 80.28708
1044.261, 83.56284
1044.743, 86.57476
1045.225, 89.55604
1045.708, 93.02051
1046.190, 96.14449
1046.672, 98.23411
1047.154, 99.29848
1047.636, 99.19054
1048.118, 97.89874
1048.600, 95.52382
1049.082, 91.98972
1049.564, 87.51136
1050.047, 81.83285
1050.529, 75.27673
1051.011, 69.60521
1051.493, 65.15195
1051.975, 61.15395
1052.457, 57.49210
1052.939, 54.20434
1053.421, 51.34433
1053.903, 48.92450
1054.386, 46.90328
1054.868, 45.31053
1055.350, 43.94597
1055.832, 42.72145
1056.314, 41.71894
1056.796, 41.00747
1057.278, 40.55136
1057.760, 40.11053
1058.243, 39.68126
1058.725, 39.19442
1059.207, 38.53458
1059.689, 37.93957
1060.171, 37.64669
1060.653, 37.53660
1061.135, 37.45145
1061.617, 37.46206
1062.099, 37.25568
1062.582, 36.76433
1063.064, 36.26647
1063.546, 35.95334
1064.028, 35.80283
1064.510, 35.84983
1064.992, 36.04506
1065.474, 36.14166
1065.956, 35.98027
1066.438, 35.77083
1066.921, 35.47635
1067.403, 35.24728
1067.885, 35.42869
1068.367, 35.96262
1068.849, 36.30688
1069.331, 36.38421
1069.813, 36.28832
1070.295, 35.96948
1070.778, 35.60196
1071.260, 35.28973
1071.742, 35.04171
1072.224, 34.96106
1072.706, 35.06705
1073.188, 35.23690
1073.670, 35.47008
1074.152, 35.66759
1074.635, 35.69323
1075.117, 35.59110
1075.599, 35.40638
1076.081, 35.00826
1076.563, 34.91056
1077.045, 35.31026
1077.527, 35.70644
1078.009, 35.72510
1078.491, 35.45776
1078.974, 35.19287
1079.456, 34.95493
1079.938, 34.86380
1080.420, 35.17657
1080.902, 35.41355
1081.384, 35.30526
1081.866, 35.06171
1082.348, 34.94521
1082.831, 34.96450
1083.313, 34.87743
1083.795, 34.65862
1084.277, 34.47343
1084.759, 34.45553
1085.241, 34.53782
1085.723, 34.73475
1086.205, 35.00760
1086.688, 35.07713
1087.170, 34.86850
1087.652, 34.68532
1088.134, 34.58884
1088.616, 34.57367
1089.098, 34.69638
1089.580, 34.87087
1090.062, 34.95064
1090.544, 34.89507
1091.026, 34.81571
1091.509, 34.69013
1091.991, 34.61823
1092.473, 34.69042
1092.955, 34.83086
1093.437, 34.70264
1093.919, 34.37999
1094.401, 34.18301
1094.883, 34.33056
1095.366, 34.46917
1095.848, 34.38570
1096.330, 34.25737
1096.812, 34.26521
1097.294, 34.43244
1097.776, 34.47336
1098.258, 34.38578
1098.740, 34.32301
1099.223, 34.40910
1099.705, 34.54333
1100.187, 34.68287
1100.669, 34.79900
1101.151, 34.81744
1101.633, 34.70505
1102.115, 34.57994
1102.597, 34.43701
1103.079, 34.34484
1103.562, 34.42293
1104.044, 34.57518
1104.526, 34.67412
1105.008, 34.71025
1105.490, 34.70087
1105.972, 34.70914
1106.454, 34.55862
1106.936, 34.13595
1107.418, 33.63643
1107.901, 33.43451
1108.383, 33.47011
1108.865, 33.61534
1109.347, 33.87343
1109.829, 34.05008
1110.311, 33.96665
1110.793, 33.87334
1111.275, 33.91703
1111.758, 34.06128
1112.240, 34.05935
1112.722, 33.93408
1113.204, 33.90272
1113.686, 34.05454
1114.168, 34.30870
1114.650, 34.84201
1115.132, 35.29350
1115.615, 35.21578
1116.097, 34.47954
1116.579, 34.08611
1117.061, 34.05891
1117.543, 34.10999
1118.025, 34.10202
1118.507, 34.03989
1118.989, 33.82582
1119.471, 33.57700
1119.953, 33.58908
1120.436, 34.15504
1120.918, 34.33934
1121.400, 33.99211
1121.882, 33.60569
1122.364, 33.79570
1122.846, 34.19071
1123.328, 34.03721
1123.810, 33.42555
1124.293, 33.09843
1124.775, 33.59930
1125.257, 33.97340
1125.739, 34.03814
1126.221, 33.94527
1126.703, 33.87263
1127.185, 33.83604
1127.667, 33.89581
1128.150, 34.06100
1128.632, 34.24596
1129.114, 34.53225
1129.596, 34.67840
1130.078, 34.53767
1130.560, 34.22102
1131.042, 34.07656
1131.524, 34.08033
1132.006, 34.05838
1132.489, 33.94186
1132.971, 33.89993
1133.453, 34.16607
1133.935, 34.45276
1134.417, 34.52271
1134.899, 34.38691
1135.381, 34.27621
1135.863, 34.18879
1136.346, 34.26805
1136.828, 34.73125
1137.310, 35.10008
1137.792, 34.67356
1138.274, 34.02088
1138.756, 33.97170
1139.238, 34.76439
1139.720, 35.15698
1140.203, 35.10905
1140.685, 34.94041
1141.167, 34.72055
1141.649, 34.60240
1142.131, 34.93113
1142.613, 35.47954
1143.095, 35.76239
1143.577, 35.45272
1144.059, 35.36992
1144.542, 35.62419
1145.024, 35.85028
1145.506, 35.60600
1145.988, 35.16523
1146.470, 35.00999
1146.952, 35.10260
1147.434, 35.19694
1147.916, 35.17867
1148.398, 35.22573
1148.881, 35.40759
1149.363, 35.57518
1149.845, 35.46700
1150.327, 35.20695
1150.809, 35.12294
1151.291, 35.23332
1151.773, 35.33170
1152.255, 35.36358
1152.738, 35.31234
1153.220, 35.10106
1153.702, 34.88371
1154.184, 35.02522
1154.666, 35.42838
1155.148, 35.71059
1155.630, 35.80606
1156.112, 35.80508
1156.594, 35.61916
1157.077, 35.49935
1157.559, 35.59356
1158.041, 35.83168
1158.523, 35.98766
1159.005, 36.06047
1159.487, 36.03111
1159.969, 35.87312
1160.451, 35.69764
1160.933, 35.63518
1161.416, 35.53439
1161.898, 35.23294
1162.380, 34.76973
1162.862, 34.53873
1163.344, 34.53727
1163.826, 34.71779
1164.308, 35.19732
1164.790, 35.56509
1165.273, 35.27699
1165.755, 34.84883
1166.237, 34.89948
1166.719, 35.51933
1167.201, 35.69964
1167.683, 35.41120
1168.165, 35.19925
1168.647, 35.44973
1169.130, 35.78460
1169.612, 35.83112
1170.094, 35.73798
1170.576, 35.72704
1171.058, 35.80724
1171.540, 35.99535
1172.022, 36.30479
1172.504, 36.61627
1172.986, 36.79871
1173.469, 36.98319
1173.951, 37.31443
1174.433, 37.75998
1174.915, 38.24031
1175.397, 38.76277
1175.879, 39.22105
1176.361, 39.56307
1176.843, 40.08658
1177.326, 41.24881
1177.808, 42.61241
1178.290, 43.54725
1178.772, 44.18658
1179.254, 45.13529
1179.736, 46.57984
1180.218, 48.07288
1180.700, 49.57347
1181.182, 51.14246
1181.665, 52.80621
1182.147, 54.61948
1182.629, 56.60015
1183.111, 58.75391
1183.593, 61.12480
1184.075, 63.59814
1184.557, 66.52801
1185.039, 70.04097
1185.521, 73.84958
1186.004, 77.62904
1186.486, 81.30550
1186.968, 84.92345
1187.450, 88.43546
1187.932, 90.97604
1188.414, 92.38367
1188.896, 92.84815
1189.378, 92.47486
1189.861, 91.02441
1190.343, 87.80970
1190.825, 83.37563
1191.307, 78.46407
1191.789, 73.12215
1192.271, 68.53138
1192.753, 65.36598
1193.235, 62.10675
1193.718, 58.19437
1194.200, 54.13820
1194.682, 50.75592
1195.164, 48.02384
1195.646, 45.98735
1196.128, 44.75694
1196.610, 43.59938
1197.092, 42.32070
1197.574, 41.13854
1198.057, 40.13431
1198.539, 39.26750
1199.021, 38.45603
1199.503, 37.68689
1199.985, 36.90793
1200.467, 36.04421
1200.949, 35.39695
1201.431, 35.04474
1201.913, 34.84400
1202.396, 34.77269
1202.878, 34.76927
1203.360, 34.71400
1203.842, 34.58888
1204.324, 34.33960
1204.806, 33.88123
1205.288, 33.46648
1205.770, 33.09548
1206.253, 32.85677
1206.735, 32.86749
1207.217, 33.01128
1207.699, 32.93811
1208.181, 32.71812
1208.663, 32.53072
1209.145, 32.40165
1209.627, 32.40032
1210.109, 32.61481
1210.592, 32.80353
1211.074, 32.81221
1211.556, 32.66525
1212.038, 32.37415
1212.520, 31.99235
1213.002, 31.68068
1213.484, 31.46906
1213.966, 31.39035
1214.448, 31.48668
1214.931, 31.62055
1215.413, 31.72605
1215.895, 31.77398
1216.377, 31.58362
1216.859, 31.25863
1217.341, 31.12569
1217.823, 31.56761
1218.305, 31.81800
1218.788, 31.78007
1219.270, 31.58728
1219.752, 31.25674
1220.234, 30.89015
1220.716, 30.81011
1221.198, 30.93609
1221.680, 30.97699
1222.162, 30.69318
1222.645, 30.52694
1223.127, 30.53592
1223.609, 30.62109
1224.091, 30.69260
1224.573, 30.76938
1225.055, 30.88917
1225.537, 31.05131
1226.019, 31.24828
1226.501, 31.70686
1226.984, 31.79062
1227.466, 31.33279
1227.948, 30.78601
1228.430, 30.60375
1228.912, 30.64974
1229.394, 30.72231
1229.876, 30.80015
1230.358, 30.84146
1230.841, 30.79068
1231.323, 30.79666
1231.805, 30.88903
1232.287, 30.99092
1232.769, 30.98981
1233.251, 30.96572
1233.733, 31.10665
1234.215, 31.35686
1234.698, 31.40953
1235.180, 31.12066
1235.662, 30.86909
1236.144, 30.68724
1236.626, 30.57962
1237.108, 30.56939
1237.590, 30.62508
1238.072, 30.73315
1238.554, 30.87680
1239.036, 30.98107
1239.519, 31.04072
1240.001, 31.05066
1240.483, 30.99261
1240.965, 30.97448
1241.447, 31.18897
1241.929, 31.43661
1242.411, 31.50422
1242.893, 31.40071
1243.376, 31.24693
1243.858, 31.03688
1244.340, 30.81907
1244.822, 30.59220
1245.304, 30.41650
1245.786, 30.32173
1246.268, 30.32470
1246.750, 30.51298
1247.233, 30.81873
1247.715, 30.95662
1248.197, 30.91080
1248.679, 30.81636
1249.161, 30.68390
1249.643, 30.60459
1250.125, 30.72261
1250.607, 30.86551
1251.089, 30.87252
1251.572, 30.80474
1252.054, 30.85644
1252.536, 31.02756
1253.018, 31.10670
1253.500, 31.05992
1253.982, 31.02101
1254.464, 31.18472
1254.946, 31.28506
1255.428, 31.07230
1255.911, 30.72933
1256.393, 30.63693
1256.875, 30.77466
1257.357, 30.96247
1257.839, 31.17673
1258.321, 31.35390
1258.803, 31.49255
1259.285, 31.52880
1259.768, 31.40639
1260.250, 31.21132
1260.732, 31.13658
1261.214, 31.13490
1261.696, 30.92979
1262.178, 30.49320
1262.660, 30.30532
1263.142, 30.97202
1263.625, 31.39547
1264.107, 31.16016
1264.589, 30.68410
1265.071, 30.66262
1265.553, 30.93489
1266.035, 31.13816
1266.517, 31.22946
1266.999, 31.20769
1267.481, 30.93355
1267.964, 30.78726
1268.446, 30.88117
1268.928, 31.05009
1269.410, 31.06971
1269.892, 31.00024
1270.374, 30.89874
1270.856, 30.78325
1271.338, 30.79781
1271.820, 30.97774
1272.303, 31.23355
1272.785, 31.58594
1273.267, 31.87372
1273.749, 31.90619
1274.231, 31.76300
1274.713, 31.42262
1275.195, 30.95577
1275.677, 30.80812
1276.160, 31.05114
1276.642, 31.28360
1277.124, 31.45191
1277.606, 31.48542
1278.088, 31.05034
1278.570, 30.68633
1279.052, 31.01858
1279.534, 31.77722
1280.016, 32.08570
1280.499, 31.93170
1280.981, 31.69666
1281.463, 31.42264
1281.945, 31.25231
1282.427, 31.44834
1282.909, 31.59924
1283.391, 31.36707
1283.873, 31.00394
1284.356, 31.01410
1284.838, 31.32853
1285.320, 31.51981
1285.802, 31.54449
1286.284, 31.53486
1286.766, 31.56726
1287.248, 31.55849
1287.730, 31.45027
1288.213, 31.34091
1288.695, 31.38894
1289.177, 31.54469
1289.659, 31.70725
1290.141, 31.85703
1290.623, 31.91566
1291.105, 31.79128
1291.587, 31.66624
1292.069, 31.55270
1292.552, 31.47902
1293.034, 31.46244
1293.516, 31.51610
1293.998, 31.73326
1294.480, 32.05971
1294.962, 32.18204
1295.444, 32.01499
1295.926, 31.88729
1296.408, 31.84366
1296.891, 31.78232
1297.373, 31.51882
1297.855, 31.27191
1298.337, 31.27902
1298.819, 31.47589
1299.301, 31.63352
1299.783, 31.74928
1300.265, 31.86874
1300.748, 31.99613
1301.230, 32.05656
1301.712, 31.97204
1302.194, 31.83806
1302.676, 31.69915
##END=



