##NAMES=Enstatite
##RRUFFID=R040093
##IDEAL CHEMISTRY=MgSiO_3_
##LOCALITY=Castle Rock, Pennsylvania, USA
##OWNER=RRUFF
##SOURCE=University of Arizona Mineral Museum
##DESCRIPTION=Dark green massive
##STATUS=The identification of this mineral has been confirmed by X-ray diffraction and chemical analysis
##URL=rruff.info/R040093
##MEASURED CHEMISTRY=(Mg_0.84_Fe_0.15_Al_0.01_)Si_1.00_O_3_
116.2615, 285.0462
116.7436, 317.0164
117.2257, 335.9581
117.7079, 350.2821
118.1900, 375.3052
118.6721, 426.6740
119.1542, 486.0125
119.6363, 539.4923
120.1184, 578.2635
120.6006, 619.7557
121.0827, 675.4895
121.5648, 744.0561
122.0469, 818.5493
122.5290, 898.2845
123.0111, 980.5348
123.4933, 1061.386
123.9754, 1134.659
124.4575, 1208.964
124.9396, 1294.663
125.4217, 1391.100
125.9038, 1494.144
126.3860, 1597.787
126.8681, 1682.911
127.3502, 1742.706
127.8323, 1793.505
128.3144, 1828.398
128.7965, 1829.288
129.2787, 1795.265
129.7608, 1736.169
130.2429, 1656.931
130.7250, 1558.974
131.2071, 1457.231
131.6892, 1352.165
132.1714, 1245.924
132.6535, 1160.433
133.1356, 1098.608
133.6177, 1055.348
134.0998, 1022.275
134.5819, 1000.043
135.0640, 981.4476
135.5462, 958.7607
136.0283, 930.8706
136.5104, 911.4596
136.9925, 902.2361
137.4746, 903.0987
137.9567, 917.5900
138.4389, 950.3600
138.9210, 986.7463
139.4031, 1009.372
139.8852, 1016.115
140.3673, 1018.498
140.8494, 1020.528
141.3316, 1023.446
141.8137, 1019.328
142.2958, 1005.705
142.7779, 987.3294
143.2600, 972.8223
143.7421, 964.3452
144.2243, 956.4105
144.7064, 947.3363
145.1885, 938.6879
145.6706, 926.0276
146.1527, 910.0703
146.6348, 890.4257
147.1170, 864.1255
147.5991, 823.5008
148.0812, 782.9530
148.5633, 750.9711
149.0454, 736.2549
149.5275, 719.0229
150.0097, 696.6427
150.4918, 669.0486
150.9739, 643.7441
151.4560, 621.3565
151.9381, 601.1022
152.4202, 582.1055
152.9024, 560.9427
153.3845, 544.4792
153.8666, 536.3586
154.3487, 539.4893
154.8308, 537.0135
155.3129, 521.2841
155.7950, 500.1701
156.2772, 483.8622
156.7593, 473.7413
157.2414, 469.2132
157.7235, 471.1231
158.2056, 482.4646
158.6877, 492.8581
159.1699, 501.2809
159.6520, 506.9072
160.1341, 507.9082
160.6162, 498.6713
161.0983, 487.8791
161.5804, 480.8492
162.0626, 480.6447
162.5447, 481.6363
163.0268, 482.7056
163.5089, 483.4977
163.9910, 482.5166
164.4731, 475.1541
164.9553, 467.3913
165.4374, 464.5872
165.9195, 472.2527
166.4016, 482.1312
166.8837, 489.1035
167.3658, 493.4496
167.8480, 499.0576
168.3301, 511.0135
168.8122, 525.0585
169.2943, 535.4695
169.7764, 536.9069
170.2585, 535.5671
170.7407, 537.4561
171.2228, 543.1257
171.7049, 547.5346
172.1870, 545.3348
172.6691, 538.9146
173.1512, 533.3601
173.6334, 532.0252
174.1155, 532.4894
174.5976, 530.8470
175.0797, 525.7087
175.5618, 522.5313
176.0439, 528.7120
176.5260, 542.1304
177.0082, 555.0618
177.4903, 562.6940
177.9724, 567.0184
178.4545, 571.6217
178.9366, 577.5792
179.4187, 583.1757
179.9009, 583.6270
180.3830, 580.0209
180.8651, 580.2875
181.3472, 592.1379
181.8293, 612.5324
182.3114, 632.8101
182.7936, 651.6985
183.2757, 669.0947
183.7578, 686.3992
184.2399, 703.4560
184.7220, 717.7568
185.2041, 723.1265
185.6863, 722.1412
186.1684, 727.2037
186.6505, 743.8092
187.1326, 768.4534
187.6147, 793.0765
188.0968, 818.0892
188.5790, 841.2658
189.0611, 860.5821
189.5432, 876.0341
190.0253, 888.9276
190.5074, 899.0975
190.9895, 906.9221
191.4717, 916.1439
191.9538, 927.9279
192.4359, 937.6078
192.9180, 938.7098
193.4001, 931.2120
193.8822, 919.5349
194.3644, 905.6536
194.8465, 889.5123
195.3286, 867.9031
195.8107, 838.4143
196.2928, 807.8716
196.7749, 788.6131
197.2570, 781.3979
197.7392, 778.8190
198.2213, 779.2133
198.7034, 782.8606
199.1855, 781.1652
199.6676, 772.0938
200.1497, 759.0516
200.6319, 750.4905
201.1140, 747.3467
201.5961, 744.5217
202.0782, 738.2300
202.5603, 727.7760
203.0424, 719.6332
203.5246, 715.2987
204.0067, 713.4365
204.4888, 709.5640
204.9709, 703.4830
205.4530, 695.9684
205.9352, 686.9097
206.4173, 675.5866
206.8994, 666.2426
207.3815, 660.0821
207.8636, 656.5386
208.3457, 652.5903
208.8279, 647.9414
209.3100, 643.5088
209.7921, 640.2321
210.2742, 638.4850
210.7563, 636.4372
211.2384, 633.0325
211.7206, 628.5098
212.2027, 627.6192
212.6848, 630.5399
213.1669, 636.8391
213.6490, 646.9476
214.1311, 663.0430
214.6133, 676.9102
215.0954, 686.1311
215.5775, 690.3549
216.0596, 694.9844
216.5417, 698.7817
217.0238, 704.3791
217.5059, 716.5786
217.9881, 740.4339
218.4702, 759.3068
218.9523, 765.9386
219.4344, 756.8563
219.9165, 760.0568
220.3986, 779.7577
220.8808, 808.1182
221.3629, 834.0300
221.8450, 856.5443
222.3271, 878.4952
222.8092, 899.9672
223.2913, 919.0087
223.7735, 945.3387
224.2556, 980.6516
224.7377, 1022.224
225.2198, 1064.648
225.7019, 1109.097
226.1840, 1152.927
226.6662, 1195.750
227.1483, 1237.567
227.6304, 1277.523
228.1125, 1315.530
228.5946, 1352.034
229.0767, 1389.267
229.5589, 1428.034
230.0410, 1465.670
230.5231, 1500.992
231.0052, 1531.577
231.4873, 1565.220
231.9694, 1604.505
232.4516, 1646.706
232.9337, 1687.610
233.4158, 1741.405
233.8979, 1773.565
234.3800, 1766.562
234.8621, 1709.735
235.3443, 1636.076
235.8264, 1540.842
236.3085, 1429.714
236.7906, 1321.307
237.2727, 1213.863
237.7548, 1111.830
238.2369, 1015.809
238.7191, 923.4444
239.2012, 842.9807
239.6833, 776.7943
240.1654, 723.2261
240.6475, 676.4670
241.1296, 635.8443
241.6118, 602.8591
242.0939, 579.0578
242.5760, 568.0723
243.0581, 558.8983
243.5402, 551.2671
244.0223, 544.9741
244.5045, 538.6238
244.9866, 532.5433
245.4687, 526.0027
245.9508, 517.4834
246.4329, 501.8112
246.9150, 495.4687
247.3972, 504.6707
247.8793, 526.2539
248.3614, 537.0074
248.8435, 531.1660
249.3256, 521.6232
249.8077, 517.8997
250.2899, 523.9919
250.7720, 527.0320
251.2541, 523.8877
251.7362, 515.6019
252.2183, 512.2604
252.7004, 517.2938
253.1826, 522.8258
253.6647, 522.4571
254.1468, 512.5074
254.6289, 504.8465
255.1110, 501.7687
255.5931, 502.7487
256.0753, 501.7274
256.5574, 497.7493
257.0395, 493.0615
257.5216, 488.8123
258.0037, 483.1609
258.4858, 482.7835
258.9680, 490.7891
259.4501, 506.1732
259.9322, 515.7842
260.4143, 516.8523
260.8964, 516.3381
261.3785, 520.5967
261.8607, 532.2760
262.3428, 541.3702
262.8249, 545.5399
263.3070, 545.3324
263.7891, 547.1599
264.2712, 551.4449
264.7534, 557.0122
265.2355, 561.8680
265.7176, 564.0828
266.1997, 572.7636
266.6818, 593.3829
267.1639, 623.5746
267.6461, 639.2087
268.1282, 635.3608
268.6103, 626.4178
269.0924, 625.1545
269.5745, 633.4473
270.0566, 642.4101
270.5387, 652.4850
271.0208, 662.4500
271.5030, 661.8731
271.9851, 648.0989
272.4672, 629.8456
272.9493, 614.9878
273.4314, 604.4700
273.9135, 592.0899
274.3957, 576.0179
274.8778, 557.0486
275.3599, 540.5266
275.8420, 527.2906
276.3241, 514.1167
276.8062, 496.6469
277.2884, 473.9207
277.7705, 455.8707
278.2526, 444.7543
278.7347, 439.8360
279.2168, 438.8620
279.6989, 442.8632
280.1811, 446.9141
280.6632, 444.9941
281.1453, 436.7177
281.6274, 433.0785
282.1095, 437.0355
282.5916, 447.0298
283.0738, 457.7719
283.5559, 469.3228
284.0380, 481.2353
284.5201, 491.8554
285.0022, 501.4335
285.4843, 515.4625
285.9665, 537.4776
286.4486, 563.2106
286.9307, 579.1089
287.4128, 584.3568
287.8949, 587.9234
288.3770, 597.8392
288.8592, 613.1329
289.3413, 626.7864
289.8234, 637.4235
290.3055, 645.6556
290.7876, 650.8824
291.2697, 653.1166
291.7519, 658.1110
292.2340, 673.6956
292.7161, 696.8318
293.1982, 714.7787
293.6803, 724.5090
294.1624, 728.8248
294.6446, 731.9907
295.1267, 734.0162
295.6088, 734.8888
296.0909, 734.0580
296.5730, 732.0226
297.0551, 730.8185
297.5373, 732.6592
298.0194, 732.5062
298.5015, 719.9855
298.9836, 697.0567
299.4657, 675.7032
299.9478, 665.9109
300.4300, 663.3494
300.9121, 660.4033
301.3942, 655.2125
301.8763, 650.4186
302.3584, 648.1477
302.8405, 648.6076
303.3227, 652.7012
303.8048, 666.1208
304.2869, 681.7767
304.7690, 689.0280
305.2511, 682.8116
305.7332, 676.3764
306.2154, 681.8782
306.6975, 696.8110
307.1796, 714.1851
307.6617, 731.3488
308.1438, 748.1625
308.6259, 764.8530
309.1081, 781.2654
309.5901, 797.6872
310.0723, 813.0640
310.5544, 828.6647
311.0365, 847.2435
311.5186, 871.8388
312.0007, 899.1722
312.4828, 926.1690
312.9650, 951.9428
313.4471, 980.1076
313.9292, 1015.212
314.4113, 1053.467
314.8934, 1088.625
315.3755, 1118.173
315.8577, 1144.156
316.3398, 1166.333
316.8219, 1184.310
317.3040, 1201.914
317.7861, 1222.645
318.2682, 1243.278
318.7504, 1259.597
319.2325, 1262.432
319.7146, 1267.889
320.1967, 1281.857
320.6788, 1304.990
321.1609, 1334.193
321.6431, 1372.194
322.1252, 1414.509
322.6073, 1456.621
323.0894, 1491.451
323.5715, 1532.132
324.0536, 1581.960
324.5358, 1640.751
325.0179, 1706.473
325.5000, 1784.074
325.9821, 1865.600
326.4642, 1945.574
326.9464, 2017.513
327.4285, 2094.545
327.9106, 2177.272
328.3927, 2265.052
328.8748, 2363.069
329.3569, 2473.920
329.8391, 2591.809
330.3212, 2713.125
330.8033, 2840.463
331.2854, 2967.945
331.7675, 3094.056
332.2496, 3220.042
332.7318, 3345.536
333.2139, 3471.856
333.6960, 3597.647
334.1781, 3723.926
334.6602, 3853.552
335.1423, 3978.086
335.6245, 4099.369
336.1066, 4216.350
336.5887, 4323.801
337.0708, 4428.249
337.5529, 4511.321
338.0350, 4567.028
338.5172, 4599.200
338.9993, 4582.185
339.4814, 4508.134
339.9635, 4391.890
340.4456, 4260.677
340.9277, 4113.350
341.4099, 3950.736
341.8920, 3765.536
342.3741, 3559.651
342.8562, 3359.503
343.3383, 3167.023
343.8204, 2979.630
344.3026, 2784.695
344.7847, 2586.219
345.2668, 2405.088
345.7489, 2255.748
346.2310, 2131.937
346.7131, 2015.157
347.1953, 1905.750
347.6774, 1803.985
348.1595, 1710.302
348.6416, 1626.325
349.1237, 1553.163
349.6058, 1494.880
350.0880, 1446.832
350.5700, 1400.618
351.0522, 1356.507
351.5343, 1315.825
352.0164, 1279.806
352.4985, 1247.983
352.9806, 1219.803
353.4627, 1197.141
353.9449, 1175.669
354.4270, 1149.305
354.9091, 1119.409
355.3912, 1092.166
355.8733, 1074.458
356.3554, 1060.646
356.8376, 1043.689
357.3197, 1019.505
357.8018, 996.8683
358.2839, 984.0597
358.7660, 977.5308
359.2481, 968.1537
359.7303, 949.8678
360.2124, 928.6717
360.6945, 907.7503
361.1766, 887.4211
361.6587, 868.3799
362.1408, 850.1635
362.6230, 833.6946
363.1051, 820.5781
363.5872, 808.7869
364.0693, 802.5933
364.5514, 805.3633
365.0335, 819.1582
365.5157, 831.9444
365.9978, 842.6971
366.4799, 851.1209
366.9620, 856.9156
367.4441, 857.1296
367.9262, 857.5983
368.4084, 858.5624
368.8905, 859.9010
369.3726, 864.4367
369.8547, 873.4974
370.3368, 884.5886
370.8189, 896.0521
371.3011, 908.7500
371.7832, 920.1714
372.2653, 928.8569
372.7474, 935.8581
373.2295, 947.6154
373.7116, 966.7782
374.1938, 985.9479
374.6759, 1001.006
375.1580, 1011.367
375.6401, 1019.680
376.1222, 1026.186
376.6043, 1030.710
377.0865, 1034.771
377.5686, 1039.804
378.0507, 1036.896
378.5328, 1017.623
379.0149, 982.5325
379.4970, 956.0397
379.9792, 940.0241
380.4613, 928.3947
380.9434, 913.6974
381.4255, 895.9561
381.9076, 877.8104
382.3897, 859.1981
382.8719, 841.0018
383.3540, 825.9831
383.8361, 814.0060
384.3182, 805.1417
384.8003, 802.7337
385.2824, 803.5688
385.7646, 798.8729
386.2467, 780.3382
386.7288, 761.0546
387.2109, 759.1225
387.6930, 772.2159
388.1751, 786.3708
388.6573, 793.3196
389.1394, 796.1379
389.6215, 797.3054
390.1036, 795.1257
390.5857, 796.2706
391.0678, 806.9238
391.5499, 824.3062
392.0320, 842.0174
392.5142, 859.7938
392.9963, 874.9023
393.4784, 885.6989
393.9605, 891.5308
394.4426, 894.6630
394.9247, 891.7713
395.4069, 887.8128
395.8890, 889.0422
396.3711, 905.5330
396.8532, 918.7903
397.3353, 923.5352
397.8174, 919.2286
398.2996, 912.0749
398.7817, 899.3446
399.2638, 885.8069
399.7459, 874.7380
400.2280, 865.4027
400.7101, 859.6514
401.1923, 858.6594
401.6744, 861.5408
402.1565, 864.2217
402.6386, 867.0120
403.1207, 869.1240
403.6028, 870.5203
404.0850, 871.9097
404.5671, 869.7076
405.0492, 862.8492
405.5313, 853.4157
406.0134, 844.3760
406.4955, 835.2891
406.9777, 829.7866
407.4598, 831.7424
407.9419, 840.0148
408.4240, 840.2308
408.9061, 830.8627
409.3882, 820.8207
409.8704, 823.1375
410.3525, 835.3427
410.8346, 841.2983
411.3167, 834.5190
411.7988, 819.9705
412.2809, 806.3270
412.7631, 793.4528
413.2452, 781.2019
413.7273, 772.7742
414.2094, 764.2463
414.6915, 748.4476
415.1736, 721.9634
415.6558, 692.6436
416.1379, 666.7933
416.6200, 643.7717
417.1021, 623.0477
417.5842, 602.5824
418.0663, 585.1823
418.5485, 573.8896
419.0306, 569.5864
419.5127, 566.5739
419.9948, 563.5752
420.4769, 560.0480
420.9590, 555.3214
421.4412, 545.8395
421.9233, 538.4900
422.4054, 536.3438
422.8875, 539.2429
423.3696, 540.7542
423.8517, 542.8851
424.3339, 541.4274
424.8160, 533.5670
425.2981, 508.4888
425.7802, 492.9673
426.2623, 491.0773
426.7444, 498.6603
427.2266, 504.8257
427.7087, 509.8604
428.1908, 513.0691
428.6729, 513.3829
429.1550, 509.8980
429.6371, 509.8516
430.1193, 513.8083
430.6014, 520.2991
431.0835, 528.1746
431.5656, 537.6624
432.0477, 545.9627
432.5298, 552.3723
433.0119, 556.9581
433.4940, 559.2811
433.9762, 559.1968
434.4583, 559.2969
434.9404, 560.7018
435.4225, 563.8817
435.9046, 571.8538
436.3867, 587.8378
436.8689, 602.4337
437.3510, 601.6483
437.8331, 589.0234
438.3152, 576.2968
438.7973, 571.7759
439.2794, 569.3116
439.7616, 562.7216
440.2437, 551.4049
440.7258, 537.6533
441.2079, 519.3251
441.6900, 500.5128
442.1721, 486.1909
442.6543, 483.8535
443.1364, 480.6902
443.6185, 470.3104
444.1006, 453.7818
444.5827, 439.4029
445.0648, 428.7930
445.5470, 420.9888
446.0291, 415.5475
446.5112, 413.6027
446.9933, 412.2850
447.4754, 411.5689
447.9576, 411.3920
448.4397, 411.7448
448.9218, 413.4691
449.4039, 414.4301
449.8860, 414.3121
450.3681, 413.2105
450.8503, 408.3916
451.3324, 396.7501
451.8145, 386.8575
452.2966, 389.5414
452.7787, 406.6868
453.2608, 418.0585
453.7430, 418.1784
454.2251, 411.9277
454.7072, 412.7005
455.1893, 420.6152
455.6714, 428.1382
456.1535, 429.8224
456.6357, 427.3830
457.1178, 425.5888
457.5999, 424.9829
458.0820, 424.3437
458.5641, 422.0782
459.0462, 418.7688
459.5284, 415.7737
460.0105, 414.2668
460.4926, 412.9153
460.9747, 409.9408
461.4568, 405.5904
461.9389, 402.6930
462.4211, 404.2534
462.9032, 407.0830
463.3853, 408.5269
463.8674, 407.4814
464.3495, 405.8594
464.8316, 403.2763
465.3138, 400.5437
465.7959, 399.3441
466.2780, 400.7682
466.7601, 403.0420
467.2422, 406.4330
467.7243, 411.8014
468.2065, 413.4701
468.6886, 410.0224
469.1707, 404.2583
469.6528, 398.7773
470.1349, 394.5767
470.6170, 387.9501
471.0992, 377.4253
471.5813, 364.4177
472.0634, 354.4354
472.5455, 347.9773
473.0276, 341.5603
473.5097, 331.9285
473.9918, 319.7056
474.4739, 312.8875
474.9561, 312.6793
475.4382, 313.9327
475.9203, 308.9966
476.4024, 299.8204
476.8845, 293.5710
477.3666, 294.8412
477.8488, 298.8565
478.3309, 300.0355
478.8130, 298.4929
479.2951, 295.0839
479.7772, 288.5727
480.2593, 281.4121
480.7415, 275.8434
481.2236, 272.2209
481.7057, 270.3938
482.1878, 270.8259
482.6699, 272.9198
483.1520, 275.7006
483.6342, 279.9930
484.1163, 283.8519
484.5984, 287.0434
485.0805, 289.6313
485.5626, 290.0751
486.0447, 285.6193
486.5269, 281.2818
487.0090, 280.4186
487.4911, 285.4183
487.9732, 288.9904
488.4553, 290.7993
488.9374, 291.0128
489.4196, 289.7382
489.9017, 286.6026
490.3838, 283.4364
490.8659, 280.8759
491.3480, 278.9003
491.8301, 277.2740
492.3123, 276.0214
492.7944, 274.8679
493.2765, 273.4069
493.7586, 271.7875
494.2407, 270.2676
494.7228, 268.3236
495.2050, 267.5851
495.6871, 272.1935
496.1692, 280.2322
496.6513, 285.2788
497.1334, 280.8273
497.6155, 273.8716
498.0977, 270.1127
498.5798, 270.1849
499.0619, 272.1118
499.5440, 277.1031
500.0261, 282.4690
500.5082, 285.6679
500.9904, 283.8563
501.4725, 282.2717
501.9546, 282.8504
502.4367, 284.7094
502.9188, 283.8984
503.4009, 273.7569
503.8831, 268.3851
504.3652, 275.4044
504.8473, 299.7534
505.3294, 311.0015
505.8115, 303.7220
506.2936, 290.6429
506.7758, 285.9910
507.2579, 290.6435
507.7400, 297.1434
508.2221, 304.9358
508.7042, 312.7477
509.1863, 315.8844
509.6685, 314.5682
510.1506, 315.3182
510.6327, 325.4686
511.1148, 340.0056
511.5969, 347.2067
512.0790, 345.6486
512.5612, 343.0194
513.0433, 346.8496
513.5254, 353.9263
514.0075, 359.2481
514.4896, 358.8041
514.9717, 358.4485
515.4539, 361.4969
515.9360, 367.3377
516.4181, 373.7690
516.9002, 380.3907
517.3823, 387.1299
517.8644, 394.7782
518.3466, 405.2969
518.8287, 410.4822
519.3108, 404.1469
519.7929, 395.9586
520.2750, 396.1513
520.7571, 409.9710
521.2393, 421.2160
521.7214, 426.6079
522.2035, 428.0322
522.6856, 433.2421
523.1677, 443.3249
523.6498, 452.0559
524.1320, 454.2451
524.6141, 451.1577
525.0962, 453.6581
525.5783, 462.5020
526.0604, 473.3709
526.5425, 481.5222
527.0247, 487.9257
527.5068, 495.7334
527.9889, 507.1560
528.4710, 518.5847
528.9531, 525.2947
529.4352, 528.8535
529.9174, 534.4523
530.3995, 546.6063
530.8816, 560.2173
531.3637, 571.7314
531.8458, 580.0746
532.3279, 590.8007
532.8101, 605.7279
533.2922, 623.4699
533.7743, 642.6190
534.2564, 668.5683
534.7385, 689.0578
535.2206, 703.8708
535.7027, 712.8633
536.1848, 715.4795
536.6669, 710.4921
537.1490, 702.0073
537.6312, 691.0895
538.1133, 677.8000
538.5954, 663.5613
539.0775, 648.6129
539.5596, 631.5884
540.0417, 609.0995
540.5239, 582.6750
541.0060, 560.3718
541.4881, 544.2241
541.9702, 531.6122
542.4523, 519.6807
542.9344, 508.6661
543.4166, 499.2232
543.8987, 492.6566
544.3808, 487.0646
544.8629, 480.3658
545.3450, 472.6345
545.8271, 467.4135
546.3093, 468.4625
546.7914, 471.1122
547.2735, 472.2734
547.7556, 472.3759
548.2377, 469.4477
548.7198, 461.5253
549.2020, 451.0790
549.6841, 441.7362
550.1662, 433.4620
550.6483, 426.3608
551.1304, 420.6599
551.6125, 416.1574
552.0947, 411.8869
552.5768, 408.2151
553.0589, 403.0721
553.5410, 392.7507
554.0231, 378.7346
554.5052, 371.8036
554.9874, 373.7801
555.4695, 377.9998
555.9516, 376.5359
556.4337, 371.4364
556.9158, 367.6608
557.3979, 367.5267
557.8801, 368.7320
558.3622, 371.3420
558.8443, 374.1666
559.3264, 373.0060
559.8085, 358.8261
560.2906, 345.9736
560.7728, 344.4186
561.2549, 358.5859
561.7370, 366.1196
562.2191, 355.9517
562.7012, 343.1064
563.1833, 339.6302
563.6655, 352.5214
564.1476, 360.3629
564.6297, 359.7473
565.1118, 354.1573
565.5939, 351.4388
566.0760, 351.8361
566.5582, 353.8150
567.0403, 358.0139
567.5224, 363.2265
568.0045, 363.8133
568.4866, 359.7246
568.9688, 356.0727
569.4509, 357.2491
569.9330, 361.6496
570.4151, 367.0388
570.8972, 373.5190
571.3793, 378.9936
571.8615, 381.6116
572.3436, 382.2194
572.8257, 382.0339
573.3078, 380.6963
573.7899, 379.4157
574.2720, 378.8886
574.7542, 378.9099
575.2363, 378.2595
575.7184, 375.3912
576.2005, 373.3174
576.6826, 373.8351
577.1647, 378.1164
577.6469, 378.5981
578.1290, 374.2778
578.6111, 367.9346
579.0932, 361.7305
579.5753, 355.6632
580.0574, 351.2423
580.5396, 349.2510
581.0217, 348.0109
581.5038, 343.5801
581.9859, 336.9569
582.4680, 332.6185
582.9501, 333.8697
583.4323, 337.9016
583.9144, 342.6834
584.3965, 347.9205
584.8786, 351.2380
585.3607, 348.7444
585.8428, 345.4807
586.3250, 345.6552
586.8071, 352.0493
587.2892, 356.4087
587.7713, 355.0712
588.2534, 351.8581
588.7355, 351.5359
589.2177, 358.0988
589.6998, 360.2339
590.1819, 354.2536
590.6640, 343.4997
591.1461, 339.6563
591.6282, 343.9393
592.1104, 348.7347
592.5925, 350.3797
593.0746, 349.4207
593.5567, 348.4663
594.0388, 347.5161
594.5209, 346.5563
595.0031, 345.2525
595.4852, 344.0129
595.9673, 343.7528
596.4494, 345.1238
596.9315, 345.9998
597.4136, 344.0904
597.8958, 340.9489
598.3779, 338.8785
598.8600, 338.4740
599.3421, 339.3773
599.8242, 343.1877
600.3063, 348.9558
600.7885, 350.4155
601.2706, 343.2174
601.7527, 337.4525
602.2348, 337.2588
602.7169, 343.0708
603.1990, 350.1363
603.6812, 359.3443
604.1633, 367.3376
604.6454, 370.5334
605.1275, 369.3695
605.6096, 367.2430
606.0917, 364.0656
606.5739, 361.8001
607.0560, 363.8633
607.5381, 368.7980
608.0202, 373.0715
608.5023, 374.9154
608.9844, 375.6802
609.4666, 375.7826
609.9487, 375.4583
610.4308, 375.7218
610.9129, 374.9097
611.3950, 376.4860
611.8771, 383.3081
612.3593, 397.9866
612.8414, 407.8274
613.3235, 410.6211
613.8056, 410.9356
614.2877, 412.2867
614.7698, 414.9072
615.2520, 417.4932
615.7341, 420.0894
616.2162, 422.2597
616.6983, 421.7327
617.1804, 419.2143
617.6625, 420.7580
618.1446, 431.0077
618.6267, 444.2101
619.1088, 452.4384
619.5909, 456.4060
620.0731, 459.6275
620.5552, 463.9925
621.0373, 468.4068
621.5194, 471.7833
622.0015, 473.9087
622.4836, 476.9128
622.9658, 479.5408
623.4479, 484.5086
623.9300, 494.1964
624.4121, 514.3215
624.8942, 528.6555
625.3763, 535.1318
625.8585, 537.7711
626.3406, 542.9396
626.8227, 551.1254
627.3048, 557.8304
627.7869, 561.3016
628.2690, 563.1660
628.7512, 567.3196
629.2333, 573.4813
629.7154, 579.6620
630.1975, 582.8979
630.6796, 586.5505
631.1617, 594.3428
631.6439, 606.4253
632.1260, 621.7790
632.6081, 642.9507
633.0902, 665.0675
633.5723, 684.7153
634.0544, 701.1762
634.5366, 715.0367
635.0187, 722.6429
635.5008, 729.8241
635.9829, 743.1955
636.4650, 764.5629
636.9471, 786.6025
637.4293, 807.9590
637.9114, 829.6755
638.3935, 854.3602
638.8756, 882.1415
639.3577, 912.9800
639.8398, 945.7814
640.3220, 982.5404
640.8041, 1028.714
641.2862, 1083.607
641.7683, 1140.993
642.2504, 1197.021
642.7325, 1253.040
643.2147, 1307.093
643.6968, 1357.882
644.1789, 1418.255
644.6610, 1502.458
645.1431, 1593.079
645.6252, 1675.642
646.1074, 1735.346
646.5895, 1810.560
647.0716, 1907.048
647.5537, 2015.618
648.0358, 2116.742
648.5179, 2208.865
649.0001, 2306.757
649.4822, 2413.241
649.9643, 2528.062
650.4464, 2648.001
650.9285, 2772.809
651.4106, 2905.646
651.8928, 3048.931
652.3749, 3197.219
652.8570, 3343.519
653.3391, 3487.718
653.8212, 3641.877
654.3033, 3823.742
654.7855, 4009.489
655.2676, 4182.165
655.7497, 4334.079
656.2318, 4482.181
656.7139, 4624.909
657.1960, 4766.168
657.6782, 4912.245
658.1603, 5071.941
658.6424, 5202.359
659.1245, 5297.689
659.6066, 5363.191
660.0887, 5409.860
660.5709, 5436.261
661.0530, 5429.792
661.5351, 5381.307
662.0172, 5301.031
662.4993, 5188.166
662.9814, 5050.879
663.4636, 4923.582
663.9457, 4820.869
664.4278, 4734.631
664.9099, 4659.376
665.3920, 4594.548
665.8741, 4546.876
666.3563, 4517.827
666.8384, 4507.233
667.3205, 4515.808
667.8026, 4544.195
668.2847, 4589.247
668.7668, 4650.956
669.2490, 4729.459
669.7311, 4829.474
670.2132, 4948.610
670.6953, 5069.986
671.1774, 5189.976
671.6595, 5313.859
672.1417, 5454.054
672.6238, 5604.102
673.1059, 5752.750
673.5880, 5894.263
674.0701, 6033.821
674.5522, 6167.817
675.0344, 6301.268
675.5165, 6455.692
675.9986, 6669.487
676.4807, 6867.449
676.9628, 7021.948
677.4449, 7132.987
677.9271, 7259.494
678.4092, 7413.064
678.8913, 7549.479
679.3734, 7641.391
679.8555, 7690.008
680.3376, 7711.778
680.8198, 7707.746
681.3019, 7668.610
681.7840, 7597.373
682.2661, 7481.455
682.7482, 7298.540
683.2303, 7032.263
683.7125, 6731.369
684.1946, 6406.755
684.6767, 6067.273
685.1588, 5723.925
685.6409, 5369.810
686.1230, 5017.573
686.6052, 4657.037
687.0873, 4302.052
687.5694, 3985.590
688.0515, 3711.171
688.5336, 3453.633
689.0157, 3203.604
689.4979, 2966.455
689.9800, 2755.483
690.4621, 2570.443
690.9442, 2405.483
691.4263, 2259.767
691.9084, 2126.800
692.3906, 1996.526
692.8727, 1869.037
693.3548, 1751.683
693.8369, 1641.578
694.3190, 1546.623
694.8011, 1474.482
695.2833, 1436.301
695.7654, 1387.284
696.2475, 1315.811
696.7296, 1242.131
697.2117, 1184.323
697.6938, 1145.969
698.1760, 1101.981
698.6581, 1047.771
699.1402, 994.9745
699.6223, 965.9800
700.1044, 954.5125
700.5865, 932.9876
701.0686, 887.9641
701.5507, 839.5349
702.0328, 807.9846
702.5150, 788.5231
702.9971, 771.7629
703.4792, 756.3659
703.9613, 740.4529
704.4434, 722.5642
704.9255, 703.2911
705.4077, 686.0320
705.8898, 672.3322
706.3719, 658.4362
706.8540, 643.3723
707.3361, 627.1141
707.8182, 609.5422
708.3004, 590.5242
708.7825, 571.5457
709.2646, 549.2365
709.7467, 528.9626
710.2288, 526.4738
710.7109, 543.0004
711.1931, 555.3315
711.6752, 541.8098
712.1573, 519.7874
712.6394, 505.5184
713.1215, 504.4069
713.6036, 503.5412
714.0858, 500.6605
714.5679, 496.8496
715.0500, 493.6662
715.5321, 493.1851
716.0142, 486.0234
716.4963, 468.4821
716.9785, 448.8766
717.4606, 442.6070
717.9427, 447.9644
718.4248, 452.1940
718.9069, 451.8277
719.3890, 448.3417
719.8712, 441.3441
720.3533, 432.6151
720.8354, 426.2033
721.3175, 427.2833
721.7996, 427.8383
722.2817, 423.5251
722.7639, 415.3071
723.2460, 409.1403
723.7281, 406.3302
724.2102, 404.1533
724.6923, 402.3381
725.1744, 400.6068
725.6566, 394.6795
726.1387, 383.7338
726.6208, 375.3963
727.1029, 377.9933
727.5850, 386.1175
728.0671, 386.7353
728.5493, 379.4279
729.0314, 372.4037
729.5135, 371.7620
729.9956, 373.4696
730.4777, 374.4542
730.9598, 374.4401
731.4420, 373.0151
731.9241, 367.5270
732.4062, 362.4562
732.8883, 362.0163
733.3704, 369.2141
733.8525, 369.4064
734.3347, 359.7499
734.8168, 347.9541
735.2989, 344.4842
735.7810, 347.9989
736.2631, 352.2019
736.7452, 356.2111
737.2274, 358.9275
737.7095, 358.7141
738.1916, 356.5280
738.6737, 353.9946
739.1558, 352.4856
739.6379, 349.8275
740.1201, 344.3387
740.6022, 337.3280
741.0843, 331.6950
741.5664, 326.8375
742.0485, 324.7548
742.5306, 326.5437
743.0128, 331.1624
743.4949, 335.5255
743.9770, 339.6293
744.4591, 342.6408
744.9412, 344.6757
745.4233, 345.0249
745.9055, 341.0223
746.3876, 333.7099
746.8697, 328.4346
747.3518, 328.6833
747.8339, 331.2075
748.3160, 335.5680
748.7982, 341.9077
749.2803, 343.9911
749.7624, 340.3853
750.2445, 334.2938
750.7266, 325.8127
751.2087, 314.6860
751.6909, 310.5955
752.1730, 314.2309
752.6551, 319.4661
753.1372, 322.3062
753.6193, 322.8370
754.1014, 320.2029
754.5836, 313.9716
755.0657, 309.1295
755.5478, 310.4252
756.0299, 313.6325
756.5120, 314.9825
756.9941, 313.2885
757.4763, 310.9846
757.9584, 307.7884
758.4405, 304.4674
758.9226, 302.0072
759.4047, 300.7498
759.8868, 297.5459
760.3690, 291.3558
760.8511, 285.2045
761.3332, 283.7147
761.8153, 285.5094
762.2974, 286.9846
762.7795, 287.1352
763.2617, 286.7122
763.7438, 284.9767
764.2259, 283.3610
764.7080, 284.0574
765.1901, 291.0180
765.6722, 296.0310
766.1544, 297.9346
766.6365, 297.3459
767.1186, 295.1668
767.6007, 291.1648
768.0828, 286.9658
768.5649, 282.5731
769.0471, 278.8421
769.5292, 279.0829
770.0113, 281.9373
770.4934, 282.0798
770.9755, 272.0809
771.4576, 262.7181
771.9398, 264.7104
772.4219, 274.2373
772.9040, 277.9942
773.3861, 264.2811
773.8682, 253.7235
774.3503, 252.6335
774.8325, 259.5916
775.3146, 266.0511
775.7967, 272.2418
776.2788, 276.9267
776.7609, 279.4936
777.2430, 280.1252
777.7252, 278.5138
778.2073, 274.9913
778.6894, 272.0695
779.1715, 270.9096
779.6536, 271.2180
780.1357, 274.8053
780.6179, 281.4697
781.1000, 282.3653
781.5821, 267.0305
782.0642, 254.1587
782.5463, 252.6606
783.0284, 263.0783
783.5105, 267.6409
783.9926, 265.3987
784.4747, 262.1256
784.9568, 261.8087
785.4390, 263.6773
785.9211, 266.6581
786.4032, 270.6171
786.8853, 272.2841
787.3674, 267.1346
787.8495, 260.2123
788.3317, 255.0205
788.8138, 251.4121
789.2959, 252.4860
789.7780, 263.9479
790.2601, 274.5074
790.7422, 275.9770
791.2244, 266.5307
791.7065, 261.1659
792.1886, 260.6021
792.6707, 261.2184
793.1528, 258.6553
793.6349, 254.7255
794.1171, 253.6043
794.5992, 256.0376
795.0813, 259.7083
795.5634, 263.8246
796.0455, 268.1382
796.5276, 272.6318
797.0098, 278.9528
797.4919, 281.9045
797.9740, 279.8768
798.4561, 276.3048
798.9382, 275.0290
799.4203, 276.2223
799.9025, 274.2192
800.3846, 267.8184
800.8667, 261.1490
801.3488, 257.7440
801.8309, 257.6874
802.3130, 261.9156
802.7952, 272.8073
803.2773, 281.8905
803.7594, 284.6741
804.2415, 283.6904
804.7236, 281.6302
805.2057, 277.5666
805.6879, 274.7418
806.1700, 273.5061
806.6521, 273.1912
807.1342, 273.7576
807.6163, 274.9333
808.0984, 272.4202
808.5806, 263.8513
809.0627, 256.8509
809.5448, 262.5955
810.0269, 274.4016
810.5090, 281.9339
810.9911, 279.9732
811.4733, 276.9600
811.9554, 273.8709
812.4375, 271.7034
812.9196, 272.3918
813.4017, 278.2549
813.8839, 278.9365
814.3660, 271.1960
814.8481, 261.9347
815.3302, 263.7884
815.8123, 273.9950
816.2944, 280.8210
816.7766, 279.9241
817.2587, 277.7546
817.7408, 280.3089
818.2229, 284.7892
818.7050, 287.1097
819.1871, 282.2753
819.6693, 280.6455
820.1514, 286.0171
820.6335, 293.2915
821.1156, 293.4111
821.5977, 285.1779
822.0798, 280.6502
822.5620, 282.7177
823.0441, 287.8883
823.5262, 291.6617
824.0083, 294.4677
824.4904, 297.5602
824.9725, 302.9649
825.4547, 306.1500
825.9368, 302.8405
826.4189, 296.3915
826.9010, 292.1838
827.3831, 289.9002
827.8652, 291.7139
828.3474, 300.3372
828.8295, 310.2742
829.3116, 310.3485
829.7937, 301.6928
830.2758, 296.1324
830.7579, 297.5777
831.2401, 300.9785
831.7222, 300.4961
832.2043, 298.1570
832.6864, 297.2584
833.1685, 300.0020
833.6506, 302.9406
834.1328, 305.8215
834.6149, 308.2805
835.0970, 309.5521
835.5791, 309.0786
836.0612, 309.6862
836.5433, 311.8240
837.0255, 315.1589
837.5076, 319.8575
837.9897, 325.3824
838.4718, 330.1949
838.9539, 334.3210
839.4360, 336.6145
839.9182, 333.4567
840.4003, 328.9953
840.8824, 328.9101
841.3645, 336.6240
841.8466, 345.5341
842.3287, 356.4401
842.8109, 367.1975
843.2930, 374.3458
843.7751, 377.9644
844.2572, 381.5073
844.7393, 385.5588
845.2214, 389.9010
845.7036, 393.8267
846.1857, 398.0257
846.6678, 403.6951
847.1499, 412.3508
847.6320, 420.3806
848.1141, 423.0994
848.5963, 426.9987
849.0784, 440.0487
849.5605, 465.6200
850.0426, 486.4922
850.5247, 500.4375
851.0068, 511.9612
851.4890, 526.6177
851.9711, 543.3753
852.4532, 559.4866
852.9353, 574.9031
853.4174, 587.9002
853.8995, 593.8766
854.3817, 598.6470
854.8638, 608.5811
855.3459, 630.3322
855.8280, 646.0690
856.3101, 654.4130
856.7922, 658.4899
857.2744, 660.9029
857.7565, 661.6475
858.2386, 661.2767
858.7207, 660.0234
859.2028, 656.0307
859.6849, 643.9652
860.1671, 630.0868
860.6492, 623.1194
861.1313, 628.0243
861.6134, 625.6572
862.0955, 604.2598
862.5776, 579.9947
863.0598, 562.0452
863.5419, 551.1970
864.0240, 543.5604
864.5061, 539.9417
864.9882, 534.4025
865.4703, 517.8766
865.9524, 497.0273
866.4345, 485.4806
866.9166, 484.4746
867.3987, 481.7313
867.8809, 468.0741
868.3630, 452.8786
868.8451, 442.6208
869.3272, 437.8074
869.8093, 432.6315
870.2914, 427.0821
870.7736, 421.3740
871.2557, 414.7960
871.7378, 408.1842
872.2199, 406.2751
872.7020, 408.5041
873.1841, 408.7693
873.6663, 401.4990
874.1484, 392.0395
874.6305, 383.1241
875.1126, 374.9958
875.5947, 370.4634
876.0768, 371.8759
876.5590, 373.1219
877.0411, 371.7026
877.5232, 368.2966
878.0053, 367.0067
878.4874, 367.6139
878.9695, 366.9364
879.4517, 360.3293
879.9338, 353.7847
880.4159, 353.8225
880.8980, 359.1974
881.3801, 365.5072
881.8622, 376.5305
882.3444, 381.8645
882.8265, 376.1966
883.3086, 364.1744
883.7907, 360.2179
884.2728, 364.9189
884.7549, 369.4176
885.2371, 370.6722
885.7192, 370.6070
886.2013, 372.1746
886.6834, 374.6154
887.1655, 376.3040
887.6476, 377.5445
888.1298, 376.8527
888.6119, 370.2161
889.0940, 362.8457
889.5761, 363.3853
890.0582, 374.6113
890.5403, 382.1942
891.0225, 383.3389
891.5046, 382.0404
891.9867, 382.8484
892.4688, 385.7502
892.9509, 391.3950
893.4330, 401.4417
893.9152, 409.6952
894.3973, 414.1776
894.8794, 414.5583
895.3615, 409.8123
895.8436, 395.2271
896.3257, 387.6254
896.8079, 388.9355
897.2900, 392.5375
897.7721, 391.3351
898.2542, 387.0349
898.7363, 385.7361
899.2184, 388.0927
899.7006, 391.1748
900.1827, 392.7025
900.6648, 394.1994
901.1469, 397.2531
901.6290, 402.5768
902.1111, 405.8690
902.5933, 407.3033
903.0754, 406.2307
903.5575, 401.1817
904.0396, 393.0970
904.5217, 385.8741
905.0038, 379.8993
905.4860, 379.6847
905.9681, 393.4113
906.4502, 409.7963
906.9323, 420.0414
907.4144, 424.4798
907.8965, 428.2166
908.3787, 430.4410
908.8608, 434.5941
909.3429, 442.5368
909.8250, 452.5718
910.3071, 459.7500
910.7892, 464.0986
911.2714, 466.0298
911.7535, 463.3303
912.2356, 461.3831
912.7177, 466.0925
913.1998, 475.1432
913.6819, 484.0318
914.1641, 493.3868
914.6462, 499.5845
915.1283, 499.2195
915.6104, 498.2965
916.0925, 507.5110
916.5746, 526.4064
917.0568, 543.0331
917.5389, 554.6225
918.0210, 565.4022
918.5031, 580.9512
918.9852, 597.6321
919.4673, 610.3708
919.9495, 614.7466
920.4316, 624.3557
920.9137, 644.5687
921.3958, 666.7701
921.8779, 683.4760
922.3600, 694.1423
922.8422, 713.4016
923.3243, 741.8630
923.8064, 769.8036
924.2885, 787.9587
924.7706, 801.8311
925.2527, 819.1013
925.7349, 840.0090
926.2170, 855.7291
926.6991, 851.8781
927.1812, 855.2503
927.6633, 878.1570
928.1454, 916.5186
928.6276, 945.7513
929.1097, 965.9199
929.5918, 982.8919
930.0739, 996.1830
930.5560, 1011.232
931.0381, 1040.425
931.5203, 1076.722
932.0024, 1102.792
932.4845, 1102.636
932.9666, 1104.886
933.4487, 1117.771
933.9308, 1134.372
934.4130, 1141.758
934.8951, 1139.891
935.3772, 1134.707
935.8593, 1126.142
936.3414, 1119.047
936.8235, 1123.578
937.3057, 1131.010
937.7878, 1128.121
938.2699, 1105.893
938.7520, 1088.500
939.2341, 1086.419
939.7162, 1083.125
940.1984, 1063.425
940.6805, 1026.344
941.1626, 1001.671
941.6447, 990.7036
942.1268, 978.7438
942.6089, 950.2081
943.0911, 916.6866
943.5732, 889.4798
944.0553, 869.4807
944.5374, 854.3743
945.0195, 848.8969
945.5016, 842.1926
945.9838, 830.0939
946.4659, 814.1201
946.9480, 801.3353
947.4301, 791.4795
947.9122, 781.6846
948.3943, 770.4162
948.8764, 758.8201
949.3585, 748.4455
949.8406, 738.6512
950.3228, 728.2142
950.8049, 716.1793
951.2870, 704.0496
951.7691, 690.2233
952.2512, 678.3561
952.7333, 676.8075
953.2155, 683.7913
953.6976, 681.9265
954.1797, 667.1161
954.6618, 651.4059
955.1439, 645.4777
955.6260, 644.0258
956.1082, 641.7157
956.5903, 637.3633
957.0724, 633.6232
957.5545, 629.8293
958.0366, 628.0026
958.5187, 630.6866
959.0009, 636.6929
959.4830, 639.0126
959.9651, 637.8393
960.4472, 635.2062
960.9293, 630.4409
961.4114, 626.4172
961.8936, 625.8112
962.3757, 627.8790
962.8578, 628.6253
963.3399, 627.0309
963.8220, 626.0735
964.3041, 626.6457
964.7863, 627.8560
965.2684, 627.8616
965.7505, 627.0048
966.2326, 626.0015
966.7147, 623.6807
967.1968, 624.5587
967.6790, 633.9528
968.1611, 646.4086
968.6432, 656.0555
969.1253, 662.9172
969.6074, 665.9631
970.0895, 664.1180
970.5717, 662.3671
971.0538, 665.4894
971.5359, 671.9367
972.0180, 678.7845
972.5001, 685.8781
972.9822, 693.0472
973.4644, 698.4360
973.9465, 705.7103
974.4286, 716.9006
974.9107, 731.4474
975.3928, 747.7491
975.8749, 766.3615
976.3571, 781.2670
976.8392, 787.9023
977.3213, 793.1675
977.8034, 807.4750
978.2855, 828.0440
978.7676, 849.7124
979.2498, 867.9474
979.7319, 890.4266
980.2140, 921.0897
980.6961, 953.8693
981.1782, 980.7474
981.6603, 1001.809
982.1425, 1029.714
982.6246, 1065.953
983.1067, 1105.167
983.5888, 1142.417
984.0709, 1180.877
984.5530, 1223.202
985.0352, 1269.646
985.5173, 1321.925
985.9994, 1383.284
986.4815, 1444.705
986.9636, 1498.951
987.4457, 1551.548
987.9279, 1621.770
988.4100, 1708.428
988.8921, 1804.531
989.3742, 1904.690
989.8563, 2016.141
990.3384, 2142.922
990.8206, 2283.493
991.3027, 2435.004
991.7848, 2593.909
992.2669, 2765.460
992.7490, 2949.303
993.2311, 3147.359
993.7133, 3366.453
994.1954, 3599.193
994.6775, 3835.684
995.1596, 4073.619
995.6417, 4331.413
996.1238, 4624.002
996.6060, 4931.031
997.0881, 5240.268
997.5702, 5551.036
998.0523, 5878.158
998.5344, 6225.072
999.0165, 6578.169
999.4987, 6925.142
999.9808, 7286.960
1000.463, 7701.901
1000.945, 8153.435
1001.427, 8585.648
1001.909, 8955.172
1002.391, 9352.831
1002.873, 9790.940
1003.356, 10255.79
1003.838, 10732.70
1004.320, 11222.02
1004.802, 11690.48
1005.284, 12137.48
1005.766, 12529.41
1006.248, 12871.46
1006.730, 13123.46
1007.213, 13247.98
1007.695, 13233.88
1008.177, 13104.17
1008.659, 12855.64
1009.141, 12500.00
1009.623, 12027.42
1010.105, 11464.14
1010.587, 10835.91
1011.069, 10162.39
1011.552, 9502.854
1012.034, 8858.861
1012.516, 8250.861
1012.998, 7687.937
1013.480, 7172.215
1013.962, 6714.023
1014.444, 6313.419
1014.926, 5946.593
1015.409, 5611.539
1015.891, 5310.561
1016.373, 5056.050
1016.855, 4835.619
1017.337, 4634.521
1017.819, 4452.341
1018.301, 4290.643
1018.783, 4162.921
1019.265, 4035.796
1019.748, 3892.136
1020.230, 3744.264
1020.712, 3634.792
1021.194, 3557.716
1021.676, 3479.194
1022.158, 3380.693
1022.640, 3285.411
1023.122, 3214.553
1023.604, 3153.408
1024.087, 3081.446
1024.569, 2990.397
1025.051, 2907.927
1025.533, 2834.415
1026.015, 2768.495
1026.497, 2709.577
1026.979, 2657.009
1027.461, 2615.237
1027.943, 2582.199
1028.426, 2539.402
1028.908, 2468.093
1029.390, 2398.417
1029.872, 2340.303
1030.354, 2291.264
1030.836, 2242.848
1031.318, 2194.921
1031.800, 2149.148
1032.283, 2107.294
1032.765, 2064.453
1033.247, 2011.475
1033.729, 1957.522
1034.211, 1913.754
1034.693, 1888.099
1035.175, 1854.650
1035.657, 1809.735
1036.140, 1765.932
1036.622, 1734.891
1037.104, 1710.819
1037.586, 1676.886
1038.068, 1634.557
1038.550, 1592.196
1039.032, 1554.490
1039.514, 1516.771
1039.996, 1478.311
1040.479, 1438.553
1040.961, 1396.882
1041.443, 1352.909
1041.925, 1308.636
1042.407, 1264.596
1042.889, 1222.091
1043.371, 1182.271
1043.853, 1145.765
1044.335, 1112.924
1044.818, 1084.325
1045.300, 1058.987
1045.782, 1038.422
1046.264, 1016.654
1046.746, 989.4518
1047.228, 959.4417
1047.710, 934.3893
1048.192, 913.4283
1048.675, 893.6975
1049.157, 875.1574
1049.639, 856.0461
1050.121, 834.7708
1050.603, 813.5812
1051.085, 794.5670
1051.567, 777.5707
1052.049, 766.2708
1052.531, 761.3232
1053.014, 756.8047
1053.496, 748.7452
1053.978, 737.8310
1054.460, 723.8474
1054.942, 707.0825
1055.424, 690.8181
1055.906, 673.7197
1056.388, 660.9334
1056.870, 655.0831
1057.353, 652.5787
1057.835, 646.2125
1058.317, 637.4226
1058.799, 630.1147
1059.281, 626.8531
1059.763, 620.7994
1060.245, 604.8871
1060.727, 588.8512
1061.210, 580.0591
1061.692, 578.5684
1062.174, 576.6783
1062.656, 574.3157
1063.138, 567.7865
1063.620, 548.8987
1064.102, 529.9727
1064.584, 523.0101
1065.067, 524.4598
1065.549, 525.1077
1066.031, 524.6272
1066.513, 522.0768
1066.995, 516.9326
1067.477, 510.8541
1067.959, 505.3936
1068.441, 500.7071
1068.923, 497.5975
1069.406, 496.1594
1069.888, 493.7463
1070.370, 489.1998
1070.852, 483.4267
1071.334, 475.8211
1071.816, 467.5931
1072.298, 464.0396
1072.780, 464.6936
1073.262, 467.1057
1073.745, 472.4778
1074.227, 474.8405
1074.709, 466.7632
1075.191, 455.1375
1075.673, 447.8059
1076.155, 445.4065
1076.637, 446.5938
1077.119, 452.3657
1077.601, 455.9803
1078.084, 450.2188
1078.566, 440.9095
1079.048, 436.5630
1079.530, 435.9673
1080.012, 434.4045
1080.494, 427.8303
1080.976, 424.2563
1081.458, 425.7121
1081.941, 428.8639
1082.423, 427.8828
1082.905, 424.5434
1083.387, 425.6930
1083.869, 432.3925
1084.351, 438.6812
1084.833, 443.2303
1085.315, 444.2278
1085.797, 438.8124
1086.280, 429.0523
1086.762, 427.4127
1087.244, 433.8715
1087.726, 437.9051
1088.208, 435.5670
1088.690, 430.2037
1089.172, 423.0504
1089.654, 415.7317
1090.136, 409.9134
1090.619, 404.6144
1091.101, 405.9770
1091.583, 415.9696
1092.065, 425.6152
1092.547, 428.4209
1093.029, 426.8619
1093.511, 425.3180
1093.993, 423.4354
1094.476, 420.0343
1094.958, 409.8752
1095.440, 405.5167
1095.922, 412.2408
1096.404, 420.7531
1096.886, 416.6295
1097.368, 403.2687
1097.850, 397.1841
1098.333, 399.8997
1098.815, 404.9938
1099.297, 411.8072
1099.779, 416.5329
1100.261, 417.4472
1100.743, 414.5637
1101.225, 404.7652
1101.707, 387.7885
1102.189, 380.1164
1102.672, 388.5926
1103.154, 400.1586
1103.636, 403.8855
1104.118, 402.4937
1104.600, 397.6286
1105.082, 387.9706
1105.564, 384.4081
1106.046, 388.7518
1106.528, 392.1481
1107.011, 388.2101
1107.493, 381.7973
1107.975, 382.6015
1108.457, 387.6816
1108.939, 390.1697
1109.421, 385.6066
1109.903, 381.4879
1110.385, 378.0975
1110.868, 375.8488
1111.350, 376.3270
1111.832, 378.2797
1112.314, 375.6042
1112.796, 368.7864
1113.278, 363.7387
1113.760, 364.8423
1114.242, 367.1392
1114.724, 369.6140
1115.207, 371.4512
1115.689, 370.0803
1116.171, 365.7706
1116.653, 365.4683
1117.135, 370.7885
1117.617, 375.5934
1118.099, 374.9863
1118.581, 371.7809
1119.063, 367.4837
1119.546, 362.3640
1120.028, 358.1748
1120.510, 354.9238
1120.992, 352.2456
1121.474, 349.4705
1121.956, 348.4448
1122.438, 354.0074
1122.920, 361.6057
1123.403, 364.9029
1123.885, 360.9601
1124.367, 357.0474
1124.849, 352.8728
1125.331, 349.7464
1125.813, 348.6752
1126.295, 349.0643
1126.777, 349.5743
1127.260, 350.4702
1127.742, 352.4909
1128.224, 361.2548
1128.706, 362.5788
1129.188, 349.9688
1129.670, 336.8451
1130.152, 339.5345
1130.634, 353.6867
1131.116, 360.5009
1131.599, 359.7016
1132.081, 356.9619
1132.563, 355.5698
1133.045, 352.5125
1133.527, 344.7252
1134.009, 335.6770
1134.491, 332.3602
1134.973, 334.3714
1135.455, 336.7894
1135.938, 339.1589
1136.420, 338.3350
1136.902, 327.6551
1137.384, 316.4895
1137.866, 311.4532
1138.348, 312.1336
1138.830, 317.1599
1139.312, 327.1339
1139.795, 333.6278
1140.277, 333.3054
1140.759, 331.1786
1141.241, 331.8920
1141.723, 334.1495
1142.205, 337.4504
1142.687, 342.8596
1143.169, 339.8615
1143.651, 325.5437
1144.134, 316.2073
1144.616, 324.6620
1145.098, 337.7990
1145.580, 332.5138
1146.062, 318.0259
1146.544, 311.6629
1147.026, 326.4538
1147.508, 334.2404
1147.990, 333.0519
1148.473, 328.4703
1148.955, 324.6029
1149.437, 320.7646
1149.919, 313.4568
1150.401, 304.3130
1150.883, 299.6201
1151.365, 305.9188
1151.847, 311.2240
1152.330, 313.3188
1152.812, 314.2263
1153.294, 317.9323
1153.776, 322.4546
1154.258, 319.0291
1154.740, 307.7631
1155.222, 299.3085
1155.704, 299.4216
1156.186, 303.1824
1156.669, 310.4057
1157.151, 318.2909
1157.633, 320.7296
1158.115, 318.4146
1158.597, 315.2884
1159.079, 311.9551
1159.561, 308.5790
1160.043, 304.1600
1160.526, 300.8282
1161.008, 299.3105
1161.490, 299.8352
1161.972, 304.7487
1162.454, 313.6941
1162.936, 320.9840
1163.418, 325.0798
1163.900, 326.5745
1164.382, 324.8735
1164.865, 321.5742
1165.347, 318.0530
1165.829, 314.3909
1166.311, 309.6578
1166.793, 303.7520
1167.275, 299.3619
1167.757, 297.6119
1168.239, 298.0387
1168.721, 301.9148
1169.204, 306.9283
1169.686, 309.7604
1170.168, 309.7394
1170.650, 310.3790
1171.132, 311.9806
1171.614, 311.8972
1172.096, 305.5697
1172.578, 298.9918
1173.061, 299.8235
1173.543, 305.2746
1174.025, 309.3078
1174.507, 311.9618
1174.989, 310.9154
1175.471, 305.2667
1175.953, 299.7080
1176.435, 299.0798
1176.917, 300.3691
1177.400, 300.5120
1177.882, 299.1623
1178.364, 295.1684
1178.846, 285.7428
1179.328, 280.0098
1179.810, 279.2085
1180.292, 281.7389
1180.774, 288.0844
1181.256, 295.3317
1181.739, 299.2772
1182.221, 299.5652
1182.703, 296.5674
1183.185, 287.2931
1183.667, 281.2543
1184.149, 281.2273
1184.631, 283.5563
1185.113, 284.0987
1185.596, 282.4883
1186.078, 276.2057
1186.560, 264.4095
1187.042, 259.2103
1187.524, 266.8251
1188.006, 275.0105
1188.488, 280.4003
1188.970, 283.6272
1189.453, 285.4529
1189.935, 286.1857
1190.417, 286.2451
1190.899, 285.4437
1191.381, 285.4388
1191.863, 287.4305
1192.345, 288.8815
1192.827, 288.2852
1193.309, 286.7310
1193.792, 288.1930
1194.274, 291.0402
1194.756, 290.7676
1195.238, 284.4570
1195.720, 279.0793
1196.202, 276.7280
1196.684, 274.8568
1197.166, 270.7841
1197.648, 266.5132
1198.131, 271.9586
1198.613, 283.5445
1199.095, 289.4188
1199.577, 279.0907
1200.059, 272.3119
1200.541, 274.9537
1201.023, 280.0959
1201.505, 283.4076
1201.988, 284.8211
1202.470, 283.6833
1202.952, 280.3408
1203.434, 276.3792
1203.916, 269.7473
1204.398, 266.5853
1204.880, 269.8509
1205.362, 274.7039
1205.844, 275.6215
1206.327, 273.9769
1206.809, 277.0798
1207.291, 284.2730
1207.773, 289.9272
1208.255, 291.3273
1208.737, 290.5340
1209.219, 287.5656
1209.701, 283.6346
1210.183, 279.0111
1210.666, 274.6703
1211.148, 276.9586
1211.630, 285.3566
1212.112, 290.2161
1212.594, 282.8943
1213.076, 276.2154
1213.558, 274.0802
1214.040, 274.4571
1214.523, 274.1497
1215.005, 273.6447
1215.487, 275.7442
1215.969, 280.5725
1216.451, 283.1201
1216.933, 279.1457
1217.415, 274.4728
1217.897, 270.2327
1218.380, 267.3526
1218.862, 268.3402
1219.344, 272.1945
1219.826, 276.4339
1220.308, 280.7966
1220.790, 281.6249
1221.272, 268.8055
1221.754, 263.3850
1222.236, 276.5367
1222.719, 297.2120
1223.201, 299.9899
1223.683, 289.7765
1224.165, 280.6078
1224.647, 274.8460
1225.129, 273.2816
1225.611, 280.8154
1226.093, 287.3610
1226.575, 290.0012
1227.058, 288.8138
1227.540, 280.9818
1228.022, 269.7642
1228.504, 264.2729
1228.986, 267.1938
1229.468, 273.1721
1229.950, 284.3675
1230.432, 292.6341
1230.915, 293.9353
1231.397, 290.7635
1231.879, 288.2451
1232.361, 286.5039
1232.843, 286.4209
1233.325, 289.5725
1233.807, 289.1890
1234.289, 282.3956
1234.771, 274.4457
1235.254, 266.0342
1235.736, 259.7475
1236.218, 264.5738
1236.700, 276.0575
1237.182, 284.2778
1237.664, 285.6183
1238.146, 285.8560
1238.628, 285.0665
1239.110, 284.9824
1239.593, 287.1802
1240.075, 290.1602
1240.557, 289.5123
1241.039, 287.2611
1241.521, 288.1098
1242.003, 297.4723
1242.485, 299.1484
1242.967, 289.3757
1243.449, 280.4507
1243.932, 281.2791
1244.414, 286.4360
1244.896, 285.9867
1245.378, 282.5197
1245.860, 281.3785
1246.342, 286.4346
1246.824, 288.1902
1247.306, 285.9554
1247.789, 283.0021
1248.271, 280.9901
1248.753, 280.0161
1249.235, 280.0963
1249.717, 281.3978
1250.199, 284.6207
1250.681, 292.7563
1251.163, 294.5758
1251.646, 289.0845
1252.128, 283.3086
1252.610, 280.5757
1253.092, 281.3560
1253.574, 290.4723
1254.056, 302.1383
1254.538, 303.7667
1255.020, 290.3532
1255.502, 287.3956
1255.984, 296.2747
1256.467, 304.2917
1256.949, 300.2787
1257.431, 293.6934
1257.913, 292.2448
1258.395, 293.7350
1258.877, 293.7739
1259.359, 291.9805
1259.841, 291.7649
1260.324, 293.2251
1260.806, 294.0028
1261.288, 290.1787
1261.770, 287.6380
1262.252, 291.5879
1262.734, 298.4219
1263.216, 303.6233
1263.698, 307.1541
1264.181, 307.6129
1264.663, 305.1729
1265.145, 303.0266
1265.627, 302.2336
1266.109, 303.3685
1266.591, 309.6129
1267.073, 315.4322
1267.555, 312.7797
1268.037, 303.2902
1268.520, 299.6923
1269.002, 301.7009
1269.484, 302.7077
1269.966, 296.2805
1270.448, 292.6981
1270.930, 295.6825
1271.412, 300.6891
1271.894, 302.0609
1272.376, 301.2790
1272.859, 304.0105
1273.341, 309.6151
1273.823, 313.0508
1274.305, 310.2308
1274.787, 308.5352
1275.269, 310.2108
1275.751, 310.5067
1276.233, 299.2815
1276.716, 285.4276
1277.198, 288.9801
1277.680, 306.3642
1278.162, 317.9893
1278.644, 317.7312
1279.126, 315.1953
1279.608, 310.6219
1280.090, 306.4477
1280.573, 304.6078
1281.055, 304.8396
1281.537, 307.8920
1282.019, 312.7978
1282.501, 316.0260
1282.983, 316.8237
1283.465, 318.6940
1283.947, 322.2018
1284.429, 324.4376
1284.911, 321.3220
1285.394, 317.4272
1285.876, 316.3961
1286.358, 317.7166
1286.840, 319.6156
##END=



