##NAMES=Erionite-Ca
##RRUFFID=R060836
##IDEAL CHEMISTRY=Ca_5_(Si_26_Al_10_O_72_)&#183;30H_2_O
##LOCALITY=Moeraki, Otago, South Island, New Zealand
##OWNER=RRUFF
##SOURCE=Michael Scott
##DESCRIPTION=Radiating group of colorless acicular hexagonal prisms
##STATUS=The identification of this mineral is confirmed by single-crystal X-ray diffraction and chemical analysis.
##URL=rruff.info/R060836
##MEASURED CHEMISTRY=(Ca_2.08_K_1.21_Na_0.94_Mg_0.77_Fe^3+^_0.41_Cr_0.10_)_Σ=5.51_(Si_26.62_Al_9.38_)O_72_·23.41H_2_O; H_2_O estimated by difference
161.0610, 1574.606
161.5431, 1578.242
162.0252, 1585.772
162.5073, 1596.173
162.9895, 1607.507
163.4716, 1625.527
163.9537, 1636.360
164.4358, 1632.988
164.9179, 1624.623
165.4000, 1621.923
165.8822, 1628.983
166.3643, 1641.981
166.8464, 1652.573
167.3285, 1658.528
167.8106, 1665.265
168.2927, 1676.933
168.7749, 1688.577
169.2570, 1692.822
169.7391, 1686.398
170.2212, 1673.962
170.7033, 1666.587
171.1854, 1669.099
171.6676, 1668.979
172.1497, 1662.954
172.6318, 1653.551
173.1139, 1644.661
173.5960, 1637.950
174.0781, 1631.767
174.5603, 1621.844
175.0424, 1607.243
175.5245, 1591.156
176.0066, 1572.205
176.4887, 1552.427
176.9708, 1535.809
177.4530, 1524.249
177.9351, 1515.314
178.4172, 1502.330
178.8993, 1479.410
179.3814, 1463.038
179.8635, 1461.327
180.3457, 1468.331
180.8278, 1474.855
181.3099, 1478.119
181.7920, 1477.064
182.2741, 1467.009
182.7562, 1441.896
183.2384, 1421.873
183.7205, 1416.330
184.2026, 1419.339
184.6847, 1419.961
185.1668, 1413.994
185.6489, 1403.763
186.1311, 1393.940
186.6132, 1383.902
187.0953, 1375.326
187.5774, 1367.939
188.0595, 1362.405
188.5416, 1361.150
189.0238, 1366.257
189.5059, 1373.438
189.9880, 1373.838
190.4701, 1367.904
190.9522, 1357.137
191.4343, 1335.682
191.9165, 1310.183
192.3986, 1294.263
192.8807, 1293.415
193.3628, 1302.053
193.8449, 1310.710
194.3270, 1320.323
194.8092, 1327.670
195.2913, 1331.813
195.7734, 1333.036
196.2555, 1331.427
196.7376, 1326.527
197.2197, 1320.025
197.7019, 1314.855
198.1840, 1311.126
198.6661, 1307.606
199.1482, 1304.990
199.6303, 1302.163
200.1124, 1296.507
200.5946, 1286.610
201.0767, 1275.419
201.5588, 1267.186
202.0409, 1260.960
202.5230, 1259.393
203.0051, 1267.980
203.4873, 1280.765
203.9694, 1286.911
204.4515, 1282.531
204.9336, 1274.296
205.4157, 1272.453
205.8978, 1277.604
206.3800, 1281.768
206.8621, 1283.260
207.3442, 1282.498
207.8263, 1279.406
208.3084, 1273.546
208.7905, 1267.440
209.2727, 1265.620
209.7548, 1268.773
210.2369, 1268.523
210.7190, 1257.100
211.2011, 1243.491
211.6832, 1242.401
212.1654, 1258.008
212.6475, 1275.681
213.1296, 1275.915
213.6117, 1257.469
214.0938, 1244.723
214.5760, 1245.528
215.0581, 1251.964
215.5402, 1254.257
216.0223, 1250.639
216.5044, 1247.738
216.9865, 1254.057
217.4687, 1270.227
217.9508, 1280.983
218.4329, 1281.388
218.9150, 1277.715
219.3971, 1276.186
219.8792, 1277.482
220.3614, 1277.871
220.8435, 1272.517
221.3256, 1261.225
221.8077, 1256.710
222.2898, 1266.182
222.7719, 1277.897
223.2541, 1281.815
223.7362, 1277.708
224.2183, 1272.201
224.7004, 1270.793
225.1825, 1273.406
225.6646, 1272.837
226.1468, 1262.189
226.6289, 1254.011
227.1110, 1258.474
227.5931, 1274.095
228.0752, 1291.238
228.5573, 1304.332
229.0395, 1312.850
229.5216, 1315.148
230.0037, 1308.130
230.4858, 1298.555
230.9679, 1288.568
231.4500, 1278.589
231.9322, 1268.286
232.4143, 1255.715
232.8964, 1243.437
233.3785, 1230.308
233.8606, 1252.192
234.3427, 1264.937
234.8249, 1269.035
235.3070, 1238.587
235.7891, 1252.748
236.2712, 1249.032
236.7533, 1244.583
237.2354, 1265.023
237.7176, 1239.600
238.1997, 1259.645
238.6818, 1259.487
239.1639, 1270.511
239.6460, 1279.176
240.1281, 1280.999
240.6103, 1277.553
241.0924, 1272.472
241.5745, 1264.284
242.0566, 1256.485
242.5387, 1247.075
243.0208, 1239.116
243.5030, 1237.138
243.9851, 1242.459
244.4672, 1251.053
244.9493, 1256.095
245.4314, 1256.922
245.9135, 1254.584
246.3957, 1244.832
246.8778, 1234.532
247.3599, 1231.588
247.8420, 1236.756
248.3241, 1242.052
248.8062, 1236.137
249.2884, 1211.308
249.7705, 1197.002
250.2526, 1200.560
250.7347, 1207.331
251.2168, 1208.396
251.6989, 1203.184
252.1811, 1196.174
252.6632, 1191.650
253.1453, 1189.816
253.6274, 1189.473
254.1095, 1193.203
254.5916, 1195.797
255.0738, 1193.484
255.5559, 1187.861
256.0380, 1183.620
256.5201, 1184.693
257.0022, 1190.996
257.4843, 1196.406
257.9665, 1202.045
258.4486, 1205.470
258.9307, 1205.515
259.4128, 1202.979
259.8949, 1198.693
260.3770, 1192.695
260.8592, 1186.067
261.3413, 1183.987
261.8234, 1190.098
262.3055, 1196.147
262.7876, 1202.914
263.2697, 1207.985
263.7519, 1207.664
264.2340, 1200.041
264.7161, 1188.875
265.1982, 1182.740
265.6803, 1183.863
266.1624, 1185.376
266.6446, 1187.818
267.1267, 1189.131
267.6088, 1186.115
268.0909, 1178.005
268.5730, 1170.174
269.0551, 1171.573
269.5373, 1185.133
270.0194, 1194.176
270.5015, 1194.349
270.9836, 1190.159
271.4657, 1182.452
271.9478, 1171.751
272.4300, 1160.691
272.9121, 1149.835
273.3942, 1139.390
273.8763, 1136.120
274.3584, 1148.169
274.8405, 1159.025
275.3227, 1156.504
275.8048, 1143.282
276.2869, 1130.767
276.7690, 1124.490
277.2511, 1124.233
277.7332, 1131.322
278.2154, 1150.658
278.6975, 1166.607
279.1796, 1165.916
279.6617, 1154.672
280.1438, 1144.959
280.6259, 1141.722
281.1081, 1141.945
281.5902, 1142.648
282.0723, 1144.321
282.5544, 1142.208
283.0365, 1128.509
283.5186, 1110.634
284.0008, 1103.306
284.4829, 1114.474
284.9650, 1128.382
285.4471, 1134.339
285.9292, 1132.694
286.4113, 1125.050
286.8935, 1109.603
287.3756, 1090.749
287.8577, 1076.928
288.3398, 1067.938
288.8219, 1063.630
289.3040, 1066.563
289.7862, 1073.802
290.2683, 1079.559
290.7504, 1081.877
291.2325, 1083.150
291.7146, 1087.689
292.1967, 1097.316
292.6789, 1102.673
293.1610, 1096.454
293.6431, 1088.659
294.1252, 1091.161
294.6073, 1105.185
295.0894, 1120.637
295.5716, 1127.218
296.0537, 1123.157
296.5358, 1120.654
297.0179, 1119.836
297.5000, 1120.241
297.9821, 1122.453
298.4643, 1125.818
298.9464, 1128.177
299.4285, 1127.512
299.9106, 1124.430
300.3927, 1126.542
300.8748, 1138.590
301.3570, 1150.287
301.8391, 1160.378
302.3212, 1168.522
302.8033, 1174.223
303.2854, 1177.192
303.7675, 1178.289
304.2497, 1179.615
304.7318, 1179.894
305.2139, 1182.735
305.6960, 1188.999
306.1781, 1197.228
306.6602, 1208.715
307.1424, 1222.763
307.6245, 1233.473
308.1066, 1229.832
308.5887, 1205.237
309.0708, 1193.151
309.5529, 1204.700
310.0351, 1221.250
310.5172, 1239.028
310.9993, 1255.457
311.4814, 1265.064
311.9635, 1258.540
312.4456, 1239.183
312.9278, 1234.711
313.4099, 1255.352
313.8920, 1275.044
314.3741, 1283.301
314.8562, 1282.296
315.3383, 1274.286
315.8205, 1254.792
316.3026, 1234.515
316.7847, 1233.803
317.2668, 1256.217
317.7489, 1276.613
318.2310, 1284.351
318.7132, 1283.876
319.1953, 1280.220
319.6774, 1272.664
320.1595, 1265.335
320.6416, 1259.881
321.1237, 1256.811
321.6059, 1259.073
322.0880, 1269.027
322.5701, 1282.141
323.0522, 1292.987
323.5343, 1301.889
324.0164, 1307.567
324.4986, 1305.163
324.9807, 1301.277
325.4628, 1305.436
325.9449, 1319.027
326.4270, 1335.249
326.9091, 1349.189
327.3913, 1360.630
327.8734, 1365.055
328.3555, 1354.075
328.8376, 1343.980
329.3197, 1344.455
329.8018, 1353.594
330.2840, 1365.271
330.7661, 1376.426
331.2482, 1386.281
331.7303, 1391.164
332.2124, 1383.538
332.6945, 1380.155
333.1767, 1389.772
333.6588, 1401.782
334.1409, 1402.869
334.6230, 1388.936
335.1051, 1368.326
335.5873, 1353.720
336.0694, 1345.276
336.5515, 1343.365
337.0336, 1352.090
337.5157, 1363.041
337.9979, 1375.097
338.4800, 1385.959
338.9621, 1390.176
339.4442, 1381.243
339.9263, 1359.872
340.4084, 1340.944
340.8906, 1322.051
341.3727, 1309.298
341.8548, 1308.690
342.3369, 1314.229
342.8190, 1315.900
343.3011, 1308.040
343.7833, 1296.372
344.2654, 1291.011
344.7475, 1293.065
345.2296, 1294.523
345.7117, 1293.487
346.1938, 1289.733
346.6760, 1281.608
347.1581, 1267.605
347.6402, 1256.609
348.1223, 1257.876
348.6044, 1267.069
349.0865, 1270.048
349.5687, 1262.645
350.0508, 1252.115
350.5329, 1247.448
351.0150, 1248.197
351.4971, 1245.054
351.9792, 1231.012
352.4614, 1216.054
352.9435, 1211.007
353.4256, 1215.112
353.9077, 1218.193
354.3898, 1212.996
354.8719, 1200.724
355.3541, 1191.190
355.8362, 1184.989
356.3183, 1180.253
356.8004, 1180.373
357.2825, 1180.611
357.7646, 1172.580
358.2468, 1153.136
358.7289, 1129.196
359.2110, 1113.449
359.6931, 1111.031
360.1752, 1107.346
360.6573, 1101.645
361.1395, 1095.512
361.6216, 1089.386
362.1037, 1083.633
362.5858, 1079.094
363.0679, 1077.359
363.5500, 1078.119
364.0322, 1073.977
364.5143, 1058.760
364.9964, 1047.027
365.4785, 1047.345
365.9606, 1052.763
366.4427, 1052.499
366.9249, 1040.749
367.4070, 1025.351
367.8891, 1019.521
368.3712, 1024.451
368.8533, 1026.306
369.3354, 1018.408
369.8176, 1007.820
370.2997, 1001.597
370.7818, 1000.063
371.2639, 1001.002
371.7460, 1004.467
372.2281, 1009.331
372.7103, 1013.891
373.1924, 1018.113
373.6745, 1020.450
374.1566, 1018.760
374.6387, 1013.296
375.1208, 1009.288
375.6030, 1007.670
376.0851, 1006.911
376.5672, 1007.256
377.0493, 1007.815
377.5314, 1005.961
378.0135, 1000.116
378.4957, 991.9032
378.9778, 985.7283
379.4599, 983.4227
379.9420, 980.9709
380.4241, 977.2110
380.9063, 973.9857
381.3884, 974.5991
381.8705, 978.5955
382.3526, 980.4260
382.8347, 972.1475
383.3168, 951.5540
383.7990, 943.2455
384.2811, 963.9487
384.7632, 979.9745
385.2453, 977.7691
385.7274, 964.4010
386.2095, 952.2335
386.6917, 946.9971
387.1738, 946.9518
387.6559, 950.1847
388.1380, 957.9447
388.6201, 962.4642
389.1022, 958.7198
389.5844, 952.5146
390.0665, 948.9016
390.5486, 948.3119
391.0307, 948.9800
391.5128, 951.1209
391.9949, 953.5949
392.4771, 953.1584
392.9592, 948.8588
393.4413, 944.7586
393.9234, 945.3578
394.4055, 949.8458
394.8876, 949.9559
395.3698, 939.6288
395.8519, 930.2537
396.3340, 929.5745
396.8161, 935.0144
397.2982, 940.0678
397.7803, 941.8701
398.2625, 941.3435
398.7446, 940.5715
399.2267, 940.8307
399.7088, 938.6210
400.1909, 930.7152
400.6730, 922.7966
401.1552, 918.9353
401.6373, 919.3995
402.1194, 922.1346
402.6015, 925.8456
403.0836, 930.4066
403.5657, 932.4037
404.0479, 928.5313
404.5300, 926.7547
405.0121, 931.5140
405.4942, 938.7700
405.9763, 943.3876
406.4584, 943.5888
406.9406, 941.0720
407.4227, 937.1303
407.9048, 931.8010
408.3869, 927.7487
408.8690, 925.8953
409.3511, 925.1210
409.8333, 923.8953
410.3154, 922.3447
410.7975, 922.4646
411.2796, 925.2473
411.7617, 929.8601
412.2438, 936.6533
412.7260, 945.2249
413.2081, 951.3029
413.6902, 951.5037
414.1723, 947.3986
414.6544, 946.4236
415.1365, 951.0192
415.6187, 955.0312
416.1008, 956.6507
416.5829, 957.3644
417.0650, 959.0487
417.5471, 962.0923
418.0292, 965.2838
418.5114, 966.9569
418.9935, 966.5952
419.4756, 967.7133
419.9577, 970.4257
420.4398, 974.6055
420.9219, 981.9421
421.4041, 990.4864
421.8862, 997.0623
422.3683, 1000.217
422.8504, 984.0280
423.3325, 1006.900
423.8146, 1020.633
424.2968, 1025.720
424.7789, 996.2604
425.2610, 1011.410
425.7431, 1008.682
426.2252, 1005.221
426.7073, 1026.649
427.1895, 1002.215
427.6716, 1023.248
428.1537, 1026.131
428.6358, 1037.322
429.1179, 1030.524
429.6000, 1034.176
430.0822, 1034.146
430.5643, 1037.008
431.0464, 1047.363
431.5285, 1054.784
432.0106, 1054.211
432.4927, 1049.869
432.9749, 1047.323
433.4570, 1048.111
433.9391, 1049.723
434.4212, 1047.820
434.9033, 1039.468
435.3854, 1041.839
435.8676, 1066.978
436.3497, 1090.623
436.8318, 1104.092
437.3139, 1110.049
437.7960, 1114.213
438.2781, 1119.045
438.7603, 1124.485
439.2424, 1130.467
439.7245, 1137.019
440.2066, 1143.629
440.6887, 1148.419
441.1708, 1155.003
441.6530, 1167.683
442.1351, 1186.340
442.6172, 1203.819
443.0993, 1213.663
443.5814, 1222.338
444.0635, 1240.709
444.5457, 1268.775
445.0278, 1294.759
445.5099, 1310.113
445.9920, 1318.176
446.4741, 1333.643
446.9562, 1360.182
447.4384, 1388.099
447.9205, 1417.439
448.4026, 1446.703
448.8847, 1472.061
449.3668, 1493.924
449.8489, 1518.626
450.3311, 1554.239
450.8132, 1601.413
451.2953, 1643.601
451.7774, 1678.394
452.2595, 1710.861
452.7416, 1739.766
453.2238, 1768.193
453.7059, 1799.055
454.1880, 1832.243
454.6701, 1873.297
455.1522, 1936.065
455.6343, 2017.979
456.1165, 2083.277
456.5986, 2120.533
457.0807, 2147.961
457.5628, 2181.785
458.0449, 2221.052
458.5270, 2262.184
459.0092, 2305.546
459.4913, 2349.568
459.9734, 2393.901
460.4555, 2437.873
460.9376, 2480.879
461.4197, 2522.640
461.9019, 2561.822
462.3840, 2594.598
462.8661, 2617.589
463.3482, 2639.899
463.8303, 2664.381
464.3124, 2685.814
464.7946, 2697.655
465.2767, 2702.929
465.7588, 2711.354
466.2409, 2730.232
466.7230, 2756.617
467.2051, 2781.322
467.6873, 2804.967
468.1694, 2825.138
468.6515, 2839.931
469.1336, 2851.453
469.6157, 2859.938
470.0978, 2865.170
470.5800, 2873.188
471.0621, 2889.310
471.5442, 2909.659
472.0263, 2928.064
472.5084, 2943.946
472.9905, 2958.145
473.4727, 2969.619
473.9548, 2980.021
474.4369, 2998.762
474.9190, 3029.214
475.4011, 3062.086
475.8832, 3095.885
476.3654, 3131.242
476.8475, 3168.220
477.3296, 3207.136
477.8117, 3249.623
478.2938, 3296.759
478.7759, 3348.554
479.2581, 3408.697
479.7402, 3491.814
480.2223, 3561.783
480.7044, 3597.898
481.1865, 3619.568
481.6686, 3653.229
482.1508, 3708.029
482.6329, 3758.974
483.1150, 3779.903
483.5971, 3777.024
484.0792, 3775.314
484.5613, 3779.671
485.0435, 3781.535
485.5256, 3776.357
486.0077, 3762.477
486.4898, 3733.013
486.9719, 3686.196
487.4540, 3625.377
487.9362, 3544.638
488.4183, 3453.012
488.9004, 3364.431
489.3825, 3283.247
489.8646, 3204.684
490.3467, 3122.168
490.8289, 3035.724
491.3110, 2945.990
491.7931, 2850.009
492.2752, 2753.819
492.7573, 2656.727
493.2394, 2560.608
493.7216, 2468.681
494.2037, 2381.907
494.6858, 2298.877
495.1679, 2216.993
495.6500, 2136.579
496.1321, 2059.777
496.6143, 1986.487
497.0964, 1918.908
497.5785, 1862.125
498.0606, 1814.852
498.5427, 1765.887
499.0248, 1708.245
499.5070, 1654.542
499.9891, 1614.327
500.4712, 1582.900
500.9533, 1552.633
501.4355, 1520.588
501.9176, 1484.747
502.3997, 1440.362
502.8818, 1381.733
503.3639, 1335.815
503.8460, 1310.497
504.3282, 1290.581
504.8103, 1273.498
505.2924, 1257.657
505.7745, 1241.447
506.2566, 1224.568
506.7387, 1205.833
507.2209, 1182.291
507.7030, 1154.627
508.1851, 1128.063
508.6672, 1102.012
509.1493, 1081.097
509.6314, 1073.760
510.1136, 1078.726
510.5957, 1075.601
511.0778, 1056.296
511.5599, 1034.766
512.0420, 1016.838
512.5241, 1002.463
513.0062, 992.4544
513.4883, 986.9475
513.9705, 981.1621
514.4526, 966.5441
514.9347, 939.0054
515.4168, 920.3090
515.8989, 915.5519
516.3810, 914.9188
516.8632, 918.4014
517.3453, 922.9074
517.8274, 923.0844
518.3095, 915.9536
518.7916, 907.4775
519.2737, 906.2253
519.7559, 910.0384
520.2380, 906.7974
520.7201, 892.4294
521.2022, 876.6412
521.6843, 867.5393
522.1664, 865.5530
522.6486, 867.3624
523.1307, 881.0068
523.6128, 889.4427
524.0949, 881.8984
524.5770, 866.6249
525.0591, 855.4909
525.5413, 851.9058
526.0234, 851.2665
526.5055, 847.8165
526.9876, 841.2534
527.4697, 836.3956
527.9518, 833.1030
528.4340, 831.9175
528.9161, 835.6984
529.3982, 840.4887
529.8803, 838.3552
530.3624, 824.3467
530.8445, 804.4188
531.3267, 822.8523
531.8088, 832.1486
532.2909, 832.7974
532.7730, 798.9001
533.2551, 809.6120
533.7372, 802.4469
534.2194, 794.5478
534.7015, 811.5385
535.1836, 782.6660
535.6657, 799.2617
536.1478, 799.1400
536.6299, 810.3520
537.1121, 817.8153
537.5942, 820.0593
538.0763, 820.4116
538.5584, 821.3407
539.0405, 822.8755
539.5226, 825.5688
540.0048, 830.1682
540.4869, 833.3720
540.9690, 832.7347
541.4511, 830.8072
541.9332, 830.9824
542.4153, 833.6821
542.8975, 836.1082
543.3796, 835.9182
543.8617, 835.8308
544.3438, 840.0364
544.8259, 847.5491
545.3080, 852.2687
545.7902, 850.2041
546.2723, 845.0613
546.7544, 847.0910
547.2365, 861.1127
547.7186, 873.0102
548.2007, 883.0066
548.6829, 890.4622
549.1650, 893.5574
549.6471, 893.7450
550.1292, 894.8441
550.6113, 899.2654
551.0934, 904.7027
551.5756, 905.0278
552.0577, 901.6815
552.5398, 909.5356
553.0219, 935.4638
553.5040, 965.7853
553.9861, 986.6655
554.4683, 997.0917
554.9504, 1002.723
555.4325, 993.7228
555.9146, 990.5817
556.3967, 1008.273
556.8788, 1034.859
557.3610, 1050.911
557.8431, 1051.198
558.3252, 1049.660
558.8073, 1065.884
559.2894, 1100.119
559.7715, 1124.033
560.2537, 1135.465
560.7358, 1140.631
561.2179, 1137.571
561.7000, 1131.772
562.1821, 1130.941
562.6642, 1137.608
563.1464, 1143.141
563.6285, 1141.957
564.1106, 1137.792
564.5927, 1138.181
565.0748, 1142.201
565.5569, 1138.717
566.0391, 1119.300
566.5212, 1088.492
567.0033, 1063.054
567.4854, 1045.231
567.9675, 1028.995
568.4496, 1014.897
568.9318, 1001.323
569.4139, 987.5167
569.8960, 973.3959
570.3781, 958.7380
570.8602, 942.6857
571.3423, 927.1901
571.8245, 916.1464
572.3066, 908.7941
572.7887, 899.1031
573.2708, 884.8695
573.7529, 869.2622
574.2350, 855.3907
574.7172, 843.3578
575.1993, 833.5325
575.6814, 826.9825
576.1635, 821.2661
576.6456, 817.3624
577.1277, 812.9819
577.6099, 803.9100
578.0920, 789.5917
578.5741, 775.7719
579.0562, 769.7444
579.5383, 770.4037
580.0204, 768.2792
580.5026, 762.6909
580.9847, 756.5797
581.4668, 752.2622
581.9489, 747.6683
582.4310, 737.7559
582.9132, 718.9561
583.3953, 708.0963
583.8774, 717.8010
584.3596, 731.4014
584.8417, 733.3273
585.3238, 725.5152
585.8059, 718.2234
586.2880, 717.0516
586.7701, 719.7074
587.2523, 722.3146
587.7344, 726.3825
588.2165, 723.9924
588.6986, 708.7878
589.1807, 693.5126
589.6628, 684.4749
590.1450, 680.5976
590.6271, 679.6060
591.1092, 682.5026
591.5913, 685.2433
592.0734, 685.3948
592.5555, 683.3290
593.0377, 677.9631
593.5198, 669.6138
594.0019, 665.0903
594.4840, 671.5341
594.9661, 686.5093
595.4482, 690.4927
595.9304, 674.5662
596.4125, 661.6438
596.8946, 654.0253
597.3767, 650.4338
597.8588, 651.9359
598.3409, 657.1780
598.8231, 660.6075
599.3052, 658.1460
599.7873, 653.0884
600.2694, 649.3420
600.7515, 646.8110
601.2336, 644.6956
601.7158, 642.6053
602.1979, 641.7954
602.6800, 644.4986
603.1621, 651.6534
603.6442, 654.1310
604.1263, 647.7913
604.6085, 642.1395
605.0906, 639.3275
605.5727, 638.7565
606.0548, 640.8995
606.5369, 645.3374
607.0190, 647.9681
607.5012, 643.2278
607.9833, 634.2582
608.4654, 631.0557
608.9475, 634.0851
609.4296, 633.2455
609.9117, 621.7900
610.3939, 607.4744
610.8760, 604.4830
611.3581, 617.5351
611.8402, 627.1711
612.3223, 633.3134
612.8044, 635.5892
613.2866, 631.7916
613.7687, 624.5674
614.2508, 617.2699
614.7329, 611.1848
615.2150, 608.0947
615.6971, 613.2109
616.1793, 624.5010
616.6614, 625.9858
617.1435, 614.1008
617.6256, 604.1836
618.1077, 606.0206
618.5898, 614.9754
619.0720, 619.3389
619.5541, 617.4992
620.0362, 615.6929
620.5183, 616.4613
621.0004, 616.2885
621.4825, 611.1442
621.9647, 602.9446
622.4468, 596.6069
622.9289, 594.5617
623.4110, 595.3768
623.8931, 596.7647
624.3752, 598.7260
624.8574, 603.7517
625.3395, 615.0261
625.8216, 622.0471
626.3037, 614.5198
626.7858, 597.7904
627.2679, 588.6681
627.7501, 590.6481
628.2322, 594.2754
628.7143, 598.9880
629.1964, 602.9283
629.6785, 603.9615
630.1606, 602.5537
630.6428, 600.8111
631.1249, 599.9462
631.6070, 599.6053
632.0891, 598.9598
632.5712, 597.9382
633.0533, 597.4193
633.5355, 597.1038
634.0176, 598.0647
634.4997, 601.7780
634.9818, 607.4529
635.4639, 612.6433
635.9460, 618.3116
636.4282, 621.7451
636.9103, 619.5469
637.3924, 616.2747
637.8745, 617.4174
638.3566, 622.5049
638.8387, 626.7521
639.3209, 626.7817
639.8030, 624.5171
640.2851, 625.6323
640.7672, 631.0550
641.2493, 630.8409
641.7314, 620.0131
642.2136, 608.6461
642.6957, 606.0070
643.1778, 609.6475
643.6599, 610.5986
644.1420, 605.8666
644.6241, 601.4169
645.1063, 598.5748
645.5884, 597.4614
646.0705, 600.1665
646.5526, 605.3059
647.0347, 606.7366
647.5168, 599.3394
647.9990, 587.5429
648.4811, 582.8294
648.9632, 586.0217
649.4453, 587.5241
649.9274, 584.8331
650.4095, 581.5138
650.8917, 580.5792
651.3738, 581.5815
651.8559, 582.3461
652.3380, 583.3898
652.8201, 583.3726
653.3022, 580.9073
653.7844, 577.8303
654.2665, 575.6993
654.7486, 574.7772
655.2307, 574.8915
655.7128, 576.0172
656.1949, 577.8654
656.6771, 580.1037
657.1592, 582.7773
657.6413, 584.4957
658.1234, 584.8550
658.6055, 584.5433
659.0876, 583.9424
659.5698, 583.1031
660.0519, 582.4142
660.5340, 583.5384
661.0161, 582.6158
661.4982, 577.0098
661.9803, 570.3652
662.4625, 565.9432
662.9446, 563.6534
663.4267, 561.4951
663.9088, 557.9904
664.3909, 554.7617
664.8730, 555.6866
665.3552, 560.2530
665.8373, 562.1288
666.3194, 560.1356
666.8015, 555.6066
667.2836, 547.8998
667.7657, 538.4772
668.2479, 535.6980
668.7300, 548.2849
669.2121, 554.6903
669.6942, 547.1019
670.1763, 537.7646
670.6584, 535.7897
671.1406, 539.7577
671.6227, 543.6703
672.1048, 544.7039
672.5869, 544.3615
673.0690, 544.4844
673.5511, 544.8085
674.0333, 543.7255
674.5154, 540.8683
674.9975, 539.9562
675.4796, 544.7189
675.9617, 552.1880
676.4438, 552.0291
676.9260, 535.8937
677.4081, 526.0345
677.8902, 525.1727
678.3723, 527.4331
678.8544, 532.7231
679.3365, 538.2701
679.8187, 538.2239
680.3008, 529.1918
680.7829, 521.2393
681.2650, 525.8118
681.7471, 535.9604
682.2292, 537.6614
682.7114, 530.7130
683.1935, 525.1686
683.6756, 526.9517
684.1577, 531.9397
684.6398, 530.4481
685.1219, 518.3858
685.6041, 513.2999
686.0862, 523.0577
686.5683, 529.9688
687.0504, 523.7952
687.5325, 511.9533
688.0146, 505.2814
688.4968, 506.0889
688.9789, 507.9516
689.4610, 508.2569
689.9431, 507.9235
690.4252, 507.5438
690.9073, 507.3492
691.3895, 507.7859
691.8716, 509.0264
692.3537, 510.8181
692.8358, 513.1785
693.3179, 516.0963
693.8000, 517.0508
694.2822, 515.4255
694.7643, 513.3893
695.2464, 510.2210
695.7285, 508.2978
696.2106, 512.6599
696.6927, 524.2064
697.1749, 529.5549
697.6570, 521.9158
698.1391, 512.6253
698.6212, 506.3770
699.1033, 502.6475
699.5854, 499.9584
700.0676, 498.1801
700.5497, 498.9901
701.0318, 505.2123
701.5139, 514.2969
701.9960, 519.8651
702.4781, 521.9343
702.9603, 521.2044
703.4424, 517.6019
703.9245, 511.8063
704.4066, 502.9506
704.8887, 491.1609
705.3708, 488.1601
705.8530, 504.9950
706.3351, 515.6781
706.8172, 513.0423
707.2993, 505.9986
707.7814, 500.2282
708.2635, 496.5945
708.7457, 494.9305
709.2278, 495.6391
709.7099, 497.4034
710.1920, 499.1806
710.6741, 500.9693
711.1563, 503.1192
711.6384, 505.5375
712.1205, 506.7513
712.6026, 505.5155
713.0847, 502.8156
713.5668, 501.4425
714.0490, 501.1697
714.5311, 503.1055
715.0132, 508.8723
715.4953, 514.8632
715.9774, 521.5090
716.4595, 526.4077
716.9417, 523.8099
717.4238, 509.3208
717.9059, 499.0971
718.3880, 503.2311
718.8701, 510.2742
719.3522, 509.3755
719.8344, 503.4442
720.3165, 501.6249
720.7986, 507.4271
721.2807, 514.7730
721.7628, 515.6924
722.2449, 511.3833
722.7271, 508.8969
723.2092, 508.5070
723.6913, 508.1111
724.1734, 506.4301
724.6555, 505.2887
725.1376, 508.2758
725.6198, 517.0192
726.1019, 519.0768
726.5840, 506.5470
727.0661, 497.8355
727.5482, 501.4402
728.0303, 508.5278
728.5125, 509.3954
728.9946, 504.1017
729.4767, 501.0022
729.9588, 508.2810
730.4409, 515.8678
730.9230, 509.4272
731.4052, 495.8942
731.8873, 493.1144
732.3694, 503.6142
732.8515, 514.4664
733.3336, 515.4293
733.8157, 508.9985
734.2979, 503.3174
734.7800, 498.1162
735.2621, 494.6766
735.7442, 492.5382
736.2263, 493.1311
736.7084, 500.0926
737.1906, 510.1090
737.6727, 515.1268
738.1548, 513.6446
738.6369, 509.7490
739.1190, 499.1169
739.6011, 491.2267
740.0833, 496.3747
740.5654, 508.6450
741.0475, 515.3420
741.5296, 512.0212
742.0117, 506.0016
742.4938, 504.0500
742.9760, 505.1285
743.4581, 508.3566
743.9402, 513.1429
744.4223, 512.2054
744.9044, 502.0520
745.3865, 489.2659
745.8687, 482.4897
746.3508, 481.9322
746.8329, 480.5908
747.3150, 475.6669
747.7971, 474.6293
748.2792, 481.5264
748.7614, 490.9140
749.2435, 500.9691
749.7256, 510.4271
750.2077, 513.8899
750.6898, 505.8029
751.1719, 496.6549
751.6541, 490.6200
752.1362, 486.9932
752.6183, 483.7742
753.1004, 481.9439
753.5825, 487.0049
754.0646, 503.2883
754.5468, 520.8688
755.0289, 520.6404
755.5110, 505.8749
755.9931, 499.8491
756.4752, 505.3803
756.9573, 511.5661
757.4395, 513.0742
757.9216, 511.0370
758.4037, 507.1815
758.8858, 499.9383
759.3679, 496.4975
759.8500, 501.2206
760.3322, 504.6613
760.8143, 502.6263
761.2964, 499.0958
761.7785, 497.8471
762.2606, 499.3885
762.7427, 503.3892
763.2249, 514.0597
763.7070, 522.6986
764.1891, 519.9122
764.6712, 512.2433
765.1533, 511.5303
765.6354, 518.4720
766.1176, 523.6218
766.5997, 519.8391
767.0818, 510.3938
767.5639, 500.5742
768.0460, 490.6962
768.5281, 486.3553
769.0103, 488.7363
769.4924, 494.6826
769.9745, 502.8547
770.4566, 512.4730
770.9387, 521.5178
771.4208, 531.1832
771.9030, 537.5042
772.3851, 540.8021
772.8672, 540.4574
773.3493, 531.3422
773.8314, 520.9726
774.3135, 520.4155
774.7957, 531.3552
775.2778, 539.9753
775.7599, 538.9792
776.2420, 534.8113
776.7241, 530.6828
777.2062, 527.4826
777.6884, 527.0677
778.1705, 529.3170
778.6526, 531.2806
779.1347, 530.4406
779.6168, 528.1635
780.0989, 527.4229
780.5811, 528.1257
781.0632, 529.1048
781.5453, 530.1426
782.0274, 531.8051
782.5095, 534.7578
782.9916, 538.2878
783.4738, 540.4902
783.9559, 542.1002
784.4380, 540.5642
784.9201, 532.9726
785.4022, 525.5651
785.8843, 518.1334
786.3665, 513.4338
786.8486, 516.9927
787.3307, 530.0082
787.8128, 538.8164
788.2949, 538.9130
788.7770, 533.4153
789.2592, 517.0163
789.7413, 499.7887
790.2234, 500.1945
790.7055, 517.5552
791.1876, 529.7507
791.6697, 519.0461
792.1519, 498.9915
792.6340, 491.6478
793.1161, 494.6295
793.5982, 498.7850
794.0803, 502.7171
794.5624, 504.9199
795.0446, 504.2265
795.5267, 501.8356
796.0088, 500.9757
796.4909, 503.0116
796.9730, 500.4908
797.4551, 489.7513
797.9373, 480.9278
798.4194, 478.1479
798.9015, 479.6054
799.3836, 484.3449
799.8657, 492.8099
800.3478, 496.4428
800.8300, 491.2937
801.3121, 484.5808
801.7942, 475.9251
802.2763, 469.1531
802.7584, 468.5548
803.2405, 473.6854
803.7227, 481.3076
804.2048, 491.0780
804.6869, 499.6704
805.1690, 502.9878
805.6511, 503.2615
806.1332, 503.8262
806.6154, 505.2786
807.0975, 508.3116
807.5796, 513.3149
808.0617, 519.0665
808.5438, 524.1657
809.0259, 528.5334
809.5081, 530.4936
809.9902, 529.8509
810.4723, 527.6613
810.9544, 523.4937
811.4365, 519.6041
811.9186, 519.0019
812.4008, 521.5651
812.8829, 522.2040
813.3650, 518.1415
813.8471, 516.2886
814.3292, 517.4026
814.8113, 520.7498
815.2935, 529.0973
815.7756, 538.8336
816.2577, 541.1760
816.7398, 532.1147
817.2219, 522.6862
817.7040, 516.0516
818.1862, 512.2186
818.6683, 513.0238
819.1504, 516.0615
819.6325, 518.0870
820.1146, 517.7693
820.5967, 512.8843
821.0789, 498.3738
821.5610, 480.4502
822.0431, 469.7993
822.5252, 465.6003
823.0073, 465.3542
823.4894, 468.4264
823.9716, 473.9888
824.4537, 482.0124
824.9358, 490.3994
825.4179, 493.8994
825.9000, 473.3979
826.3821, 491.4364
826.8643, 500.3356
827.3464, 500.5887
827.8285, 466.2954
828.3106, 476.6111
828.7927, 469.0496
829.2748, 460.7552
829.7570, 477.3488
830.2391, 448.0803
830.7212, 464.2798
831.2033, 462.3291
831.6854, 468.6853
832.1675, 457.0540
832.6497, 450.9775
833.1318, 445.2723
833.6139, 447.6229
834.0960, 450.7932
834.5781, 448.1497
835.0602, 445.3037
835.5424, 449.9272
836.0245, 458.9843
836.5066, 463.6476
836.9887, 460.7153
837.4708, 455.7269
837.9529, 454.6944
838.4351, 455.1578
838.9172, 449.8204
839.3993, 440.8843
839.8814, 440.5999
840.3635, 451.7922
840.8456, 461.8690
841.3278, 459.2117
841.8099, 448.1264
842.2920, 443.4576
842.7741, 446.3304
843.2562, 444.3431
843.7383, 433.8291
844.2205, 426.3235
844.7026, 429.9081
845.1847, 438.5386
845.6668, 440.4428
846.1489, 433.3891
846.6310, 429.1968
847.1132, 430.1288
847.5953, 431.0438
848.0774, 431.4811
848.5595, 430.9413
849.0416, 427.3950
849.5237, 422.0345
850.0059, 420.8474
850.4880, 426.6406
850.9701, 434.4104
851.4522, 446.8783
851.9343, 456.6547
852.4164, 455.6487
852.8986, 447.4581
853.3807, 439.6166
853.8628, 434.5407
854.3449, 431.8154
854.8270, 431.8390
855.3091, 433.4778
855.7913, 437.9429
856.2734, 442.3360
856.7555, 437.1129
857.2376, 422.0321
857.7197, 410.7665
858.2018, 414.4438
858.6840, 424.9410
859.1661, 424.4317
859.6482, 414.6048
860.1303, 409.0159
860.6124, 408.9151
861.0945, 413.1549
861.5767, 422.3905
862.0588, 431.0980
862.5409, 430.5146
863.0230, 420.3974
863.5051, 410.1967
863.9872, 396.8009
864.4694, 392.6490
864.9515, 406.4520
865.4336, 422.0792
865.9157, 426.0346
866.3978, 420.5056
866.8799, 415.2998
867.3621, 408.9399
867.8442, 405.5449
868.3263, 407.7431
868.8084, 410.2143
869.2905, 410.2263
869.7726, 409.2912
870.2548, 411.3641
870.7369, 416.5433
871.2190, 414.6313
871.7011, 389.8376
872.1832, 371.7069
872.6653, 381.5413
873.1475, 401.5685
873.6296, 414.9038
874.1117, 419.8200
874.5938, 418.5317
875.0759, 411.0363
875.5580, 404.3613
876.0402, 406.7834
876.5223, 412.5401
877.0044, 412.0965
877.4865, 407.8000
877.9686, 409.0511
878.4507, 417.6399
878.9329, 424.0420
879.4150, 419.1790
879.8971, 408.0077
880.3792, 399.9034
880.8613, 395.2613
881.3434, 399.1466
881.8256, 412.0687
882.3077, 420.5330
882.7898, 416.6404
883.2719, 406.8954
883.7540, 401.4821
884.2361, 400.4203
884.7183, 404.4135
885.2004, 415.6696
885.6825, 422.9608
886.1646, 423.3098
886.6467, 418.4166
887.1288, 407.1866
887.6110, 392.2480
888.0931, 387.1688
888.5752, 398.9110
889.0573, 406.8656
889.5394, 409.5357
890.0215, 409.9309
890.5037, 407.2545
890.9858, 404.1758
891.4679, 405.3008
891.9500, 410.9257
892.4321, 412.0428
892.9142, 402.5095
893.3964, 394.8560
893.8785, 394.1933
894.3606, 395.3594
894.8427, 393.7944
895.3248, 390.7180
895.8069, 389.8910
896.2891, 392.5321
896.7712, 396.2026
897.2533, 401.3014
897.7354, 405.3862
898.2175, 407.6678
898.6996, 407.0997
899.1818, 399.2994
899.6639, 386.0821
900.1460, 378.8195
900.6281, 386.0032
901.1102, 397.1122
901.5923, 402.7465
902.0745, 404.0749
902.5566, 401.0533
903.0387, 395.5876
903.5208, 393.8179
904.0029, 397.8293
904.4850, 402.7628
904.9672, 403.1790
905.4493, 401.1192
905.9314, 402.6032
906.4135, 406.4034
906.8956, 404.7858
907.3777, 396.7817
907.8599, 391.8697
908.3420, 396.3148
908.8241, 404.8254
909.3062, 407.7028
909.7883, 405.0014
910.2704, 402.3351
910.7526, 399.6044
911.2347, 398.0228
911.7169, 398.2032
912.1990, 398.5700
912.6811, 397.5486
913.1632, 395.5484
913.6453, 394.6957
914.1274, 396.1324
914.6096, 394.0867
915.0917, 384.9493
915.5738, 379.3740
916.0559, 382.2943
916.5380, 391.2285
917.0201, 405.6193
917.5023, 426.4581
917.9844, 432.2684
918.4665, 408.7866
918.9486, 392.3938
919.4307, 391.0172
919.9128, 394.0971
920.3950, 397.8507
920.8771, 401.1973
921.3592, 401.9667
921.8413, 399.5176
922.3234, 396.8188
922.8055, 391.3010
923.2877, 389.3262
923.7698, 397.8629
924.2519, 407.3152
924.7340, 407.7201
925.2161, 400.8324
925.6982, 395.5826
926.1804, 395.0962
926.6625, 394.3628
927.1446, 389.7185
927.6267, 385.8605
928.1088, 386.8629
928.5909, 390.3701
929.0731, 393.4052
929.5552, 395.1204
930.0373, 394.7191
930.5194, 390.4790
931.0015, 386.1758
931.4836, 383.6240
931.9658, 383.2261
932.4479, 387.7739
932.9300, 394.4353
933.4121, 395.2554
933.8942, 388.2380
934.3763, 383.1868
934.8585, 390.8707
935.3406, 402.0734
935.8227, 405.3548
936.3048, 403.6288
936.7869, 401.8798
937.2690, 400.9677
937.7512, 400.3708
938.2333, 399.8240
938.7154, 399.8211
939.1975, 402.4759
939.6796, 405.4553
940.1617, 401.4400
940.6439, 392.8582
941.1260, 390.6626
941.6081, 396.4031
942.0902, 400.3464
942.5723, 395.4536
943.0544, 386.6677
943.5366, 381.6054
944.0187, 380.3517
944.5008, 385.4937
944.9829, 396.3191
945.4650, 402.2136
945.9471, 399.6428
946.4293, 393.8909
946.9114, 389.3264
947.3935, 386.2845
947.8756, 386.5423
948.3577, 390.0815
948.8398, 390.7859
949.3220, 387.7981
949.8041, 386.3446
950.2862, 388.7904
950.7683, 392.9617
951.2504, 396.1388
951.7325, 398.6095
952.2147, 403.5709
952.6968, 412.4602
953.1789, 414.3483
953.6610, 406.0395
954.1431, 396.8459
954.6252, 390.6043
955.1074, 388.9106
955.5895, 396.2657
956.0716, 413.3257
956.5537, 417.9595
957.0358, 404.8291
957.5179, 395.1851
958.0001, 393.5083
958.4822, 394.9803
958.9643, 397.4418
959.4464, 400.0676
959.9285, 401.0341
960.4106, 400.2451
960.8928, 398.1030
961.3749, 393.1526
961.8570, 389.7156
962.3391, 390.5065
962.8212, 390.9673
963.3033, 385.6877
963.7855, 377.4986
964.2676, 376.3451
964.7497, 386.7133
965.2318, 392.7249
965.7139, 389.3192
966.1960, 388.3514
966.6782, 396.9202
967.1603, 406.3117
967.6424, 408.7460
968.1245, 405.1284
968.6066, 400.0442
969.0887, 390.7480
969.5709, 385.2973
970.0530, 385.5237
970.5351, 387.9396
971.0172, 393.0168
971.4993, 398.3586
971.9814, 401.9302
972.4636, 403.5317
972.9457, 402.4823
973.4278, 394.6581
973.9099, 390.4485
974.3920, 396.1815
974.8741, 400.3814
975.3563, 393.4914
975.8384, 383.8357
976.3205, 383.1870
976.8026, 391.9146
977.2847, 399.6604
977.7668, 406.0451
978.2490, 408.8401
978.7311, 403.1210
979.2132, 398.2464
979.6953, 403.9418
980.1774, 412.5580
980.6595, 410.0216
981.1417, 394.9362
981.6238, 385.0335
982.1059, 387.6046
982.5880, 392.6550
983.0701, 399.0092
983.5522, 404.5690
984.0344, 406.4395
984.5165, 406.9390
984.9986, 411.6160
985.4807, 421.5459
985.9628, 426.6521
986.4449, 420.0509
986.9271, 412.5547
987.4092, 407.4034
987.8913, 404.3715
988.3734, 403.8290
988.8555, 404.9673
989.3376, 406.3314
989.8198, 407.6012
990.3019, 409.1808
990.7840, 414.5271
991.2661, 416.1400
991.7482, 405.8315
992.2303, 393.8015
992.7125, 389.0328
993.1946, 390.7344
993.6767, 395.5788
994.1588, 403.0374
994.6409, 410.2589
995.1230, 416.2534
995.6052, 421.4880
996.0873, 429.1106
996.5694, 433.7311
997.0515, 425.6723
997.5336, 410.6546
998.0157, 404.1343
998.4979, 411.0542
998.9800, 421.0905
999.4621, 433.7912
999.9442, 443.3573
1000.426, 444.2300
1000.908, 441.8956
1001.391, 443.3853
1001.873, 446.8795
1002.355, 444.7085
1002.837, 433.5833
1003.319, 424.2996
1003.801, 420.5367
1004.283, 421.6360
1004.765, 431.2810
1005.247, 442.5598
1005.730, 448.2676
1006.212, 448.8399
1006.694, 448.1305
1007.176, 447.1880
1007.658, 445.3936
1008.140, 440.0042
1008.622, 436.5321
1009.104, 441.3474
1009.587, 447.5618
1010.069, 444.4675
1010.551, 436.0468
1011.033, 438.1013
1011.515, 457.9362
1011.997, 473.0341
1012.479, 471.5017
1012.961, 464.8153
1013.443, 456.9306
1013.926, 449.3524
1014.408, 441.8207
1014.890, 435.8415
1015.372, 435.6792
1015.854, 443.4177
1016.336, 452.2687
1016.818, 463.9666
1017.300, 470.8843
1017.783, 465.0723
1018.265, 455.4707
1018.747, 451.4026
1019.229, 451.7697
1019.711, 450.5948
1020.193, 446.1614
1020.675, 441.6511
1021.157, 434.7307
1021.639, 432.1508
1022.122, 444.5500
1022.604, 456.8545
1023.086, 449.4956
1023.568, 430.3247
1024.050, 425.8119
1024.532, 446.1562
1025.014, 457.2877
1025.496, 439.0707
1025.979, 423.5703
1026.461, 425.9514
1026.943, 434.9128
1027.425, 442.3709
1027.907, 447.5102
1028.389, 449.9245
1028.871, 448.6184
1029.353, 449.3469
1029.835, 453.8651
1030.318, 459.7761
1030.800, 470.6670
1031.282, 478.6252
1031.764, 476.0299
1032.246, 466.0135
1032.728, 454.7083
1033.210, 440.5899
1033.692, 436.3990
1034.174, 452.1989
1034.657, 466.2450
1035.139, 475.8756
1035.621, 479.3716
1036.103, 469.6378
1036.585, 454.7584
1037.067, 453.4572
1037.549, 470.2109
1038.031, 477.8262
1038.514, 465.5671
1038.996, 458.7078
1039.478, 466.1512
1039.960, 474.0760
1040.442, 474.3777
1040.924, 470.0748
1041.406, 465.9604
1041.888, 461.8672
1042.370, 459.6758
1042.853, 459.1745
1043.335, 461.2159
1043.817, 468.6950
1044.299, 474.1882
1044.781, 472.3907
1045.263, 467.7273
1045.745, 467.0876
1046.227, 470.4443
1046.709, 472.3262
1047.192, 472.8824
1047.674, 471.4461
1048.156, 467.5353
1048.638, 462.4730
1049.120, 456.1805
1049.602, 450.3529
1050.084, 447.1754
1050.566, 446.4709
1051.049, 446.9388
1051.531, 449.0913
1052.013, 449.5035
1052.495, 447.5160
1052.977, 445.3981
1053.459, 443.9353
1053.941, 443.1155
1054.423, 442.9017
1054.906, 443.3447
1055.388, 444.6487
1055.870, 446.8049
1056.352, 449.9482
1056.834, 454.1117
1057.316, 459.3427
1057.798, 466.0500
1058.280, 468.9039
1058.762, 462.6115
1059.245, 450.8484
1059.727, 440.4553
1060.209, 432.1430
1060.691, 432.1136
1061.173, 439.8346
1061.655, 449.4804
1062.137, 459.1505
1062.619, 462.4565
1063.101, 453.9021
1063.584, 442.3928
1064.066, 442.2986
1064.548, 450.5669
1065.030, 462.3306
1065.512, 474.5103
1065.994, 474.7928
1066.476, 446.1161
1066.958, 466.0529
1067.441, 476.8498
1067.923, 479.0016
1068.405, 446.6071
1068.887, 458.8220
1069.369, 453.1592
1069.851, 446.7637
1070.333, 465.2569
1070.815, 437.8873
1071.297, 455.9857
1071.780, 455.9322
1072.262, 464.1877
1072.744, 454.4551
1073.226, 450.2787
1073.708, 448.2340
1074.190, 449.1972
1074.672, 456.3101
1075.154, 466.0980
1075.636, 469.9655
1076.119, 466.3303
1076.601, 464.3461
1077.083, 470.0057
1077.565, 476.6023
1078.047, 484.2137
1078.529, 487.7742
1079.011, 477.1463
1079.494, 462.9619
1079.976, 463.7043
1080.458, 479.1033
1080.940, 488.6790
1081.422, 482.9095
1081.904, 478.8231
1082.386, 480.4496
1082.868, 484.8376
1083.350, 494.5591
1083.833, 503.3348
1084.315, 502.2007
1084.797, 493.9637
1085.279, 492.9202
1085.761, 505.3998
1086.243, 510.8394
1086.725, 503.0943
1087.207, 497.6304
1087.689, 499.1865
1088.172, 502.6432
1088.654, 504.5300
1089.136, 505.5754
1089.618, 507.5274
1090.100, 510.5918
1090.582, 512.9923
1091.064, 516.0280
1091.546, 512.1035
1092.029, 496.1783
1092.511, 487.3640
1092.993, 497.9188
1093.475, 515.5781
1093.957, 523.1218
1094.439, 521.9406
1094.921, 519.0226
1095.403, 514.4041
1095.885, 514.0527
1096.368, 518.5169
1096.850, 523.2430
1097.332, 526.5277
1097.814, 529.6524
1098.296, 534.0659
1098.778, 538.5016
1099.260, 539.1091
1099.742, 537.8371
1100.224, 542.0554
1100.707, 550.3228
1101.189, 555.3680
1101.671, 555.9194
1102.153, 556.0731
1102.635, 558.4191
1103.117, 560.4360
1103.599, 560.1151
1104.081, 557.3120
1104.564, 548.5013
1105.046, 538.9068
1105.528, 538.5666
1106.010, 545.8072
1106.492, 551.7365
1106.974, 553.2448
1107.456, 554.1439
1107.938, 557.1639
1108.421, 559.5927
1108.903, 559.1895
1109.385, 558.0697
1109.867, 557.2873
1110.349, 557.5768
1110.831, 560.5438
1111.313, 566.1249
1111.795, 570.2734
1112.277, 571.2911
1112.760, 571.9819
1113.242, 570.0833
1113.724, 571.2499
1114.206, 582.1672
1114.688, 594.0137
1115.170, 597.8100
1115.652, 595.0489
1116.134, 591.4207
1116.616, 586.3107
1117.099, 582.7830
1117.581, 582.1036
1118.063, 579.4352
1118.545, 572.7958
1119.027, 566.1303
1119.509, 561.6627
1119.991, 559.6434
1120.473, 561.2910
1120.956, 565.8770
1121.438, 564.5974
1121.920, 557.5437
1122.402, 555.9021
1122.884, 560.8660
1123.366, 566.1721
1123.848, 569.2065
1124.330, 568.8053
1124.813, 562.7053
1125.295, 555.2087
1125.777, 555.1465
1126.259, 559.6255
1126.741, 561.9955
1127.223, 562.4175
1127.705, 561.8393
1128.187, 561.1993
1128.669, 564.3608
1129.151, 574.3854
1129.634, 581.6016
1130.116, 572.9095
1130.598, 562.8857
1131.080, 567.7221
1131.562, 576.7996
1132.044, 577.3201
1132.526, 570.3102
1133.008, 560.5994
1133.491, 549.2512
1133.973, 542.1054
1134.455, 541.2075
1134.937, 544.5524
1135.419, 558.6252
1135.901, 568.8045
1136.383, 564.0842
1136.865, 552.6260
1137.348, 543.2498
1137.830, 536.2886
1138.312, 533.0833
1138.794, 534.5905
1139.276, 537.2554
1139.758, 541.2281
1140.240, 546.3518
1140.722, 553.7225
1141.204, 559.1044
1141.687, 559.8480
1142.169, 555.9636
1142.651, 545.8881
1143.133, 531.2253
1143.615, 524.7787
1144.097, 526.1465
1144.579, 532.0414
1145.061, 541.1498
1145.543, 544.1133
1146.026, 537.5389
1146.508, 527.9861
1146.990, 520.3682
1147.472, 515.4609
1147.954, 515.7772
1148.436, 518.6683
1148.918, 519.1611
1149.400, 518.8324
1149.883, 521.5839
1150.365, 527.5883
1150.847, 535.4196
1151.329, 545.2147
1151.811, 550.7852
1152.293, 547.0725
1152.775, 540.1940
1153.257, 529.9064
1153.740, 521.4849
1154.222, 522.3364
1154.704, 526.7512
1155.186, 522.8992
1155.668, 510.0589
1156.150, 502.9150
1156.632, 506.2233
1157.114, 509.3596
1157.596, 513.9170
1158.078, 514.5812
1158.561, 507.0137
1159.043, 499.9388
1159.525, 501.2859
1160.007, 507.3511
1160.489, 509.8916
1160.971, 508.9005
1161.453, 503.8632
1161.935, 494.8509
1162.418, 488.1512
1162.900, 484.7455
1163.382, 485.2288
1163.864, 489.8125
1164.346, 491.9445
1164.828, 483.3660
1165.310, 472.7222
1165.792, 476.3101
1166.275, 486.3111
1166.757, 490.3015
1167.239, 488.7434
1167.721, 482.6327
1168.203, 474.1792
1168.685, 470.9103
1169.167, 477.0627
1169.649, 479.6626
1170.131, 466.4464
1170.614, 454.5984
1171.096, 453.4370
1171.578, 457.0222
1172.060, 464.3344
1172.542, 470.9782
1173.024, 469.0680
1173.506, 458.4565
1173.988, 450.8793
1174.470, 448.1342
1174.953, 444.1794
1175.435, 435.5834
1175.917, 435.0920
1176.399, 449.4991
1176.881, 464.0035
1177.363, 467.7832
1177.845, 464.3129
1178.327, 459.0770
1178.810, 452.6131
1179.292, 448.4796
1179.774, 446.4771
1180.256, 445.5933
1180.738, 445.6437
1181.220, 446.3050
1181.702, 447.5298
1182.184, 450.6105
1182.667, 458.0562
1183.149, 462.6737
1183.631, 451.8138
1184.113, 439.0071
1184.595, 442.2176
1185.077, 450.6753
1185.559, 445.6844
1186.041, 431.9584
1186.523, 430.1908
1187.005, 446.2698
1187.488, 454.9365
1187.970, 444.0231
1188.452, 434.1364
1188.934, 428.6982
1189.416, 426.2029
1189.898, 427.4613
1190.380, 429.6590
1190.862, 430.5884
1191.345, 429.7604
1191.827, 425.4047
1192.309, 417.3817
1192.791, 406.8352
1193.273, 393.4950
1193.755, 385.1639
1194.237, 383.1973
1194.719, 387.5871
1195.202, 398.3463
1195.684, 406.9660
1196.166, 402.9731
1196.648, 396.0130
1197.130, 402.9019
1197.612, 415.1368
1198.094, 421.4513
1198.576, 421.4200
1199.058, 413.9216
1199.541, 401.1286
1200.023, 390.0920
1200.505, 382.9884
1200.987, 378.1535
1201.469, 378.7549
1201.951, 376.1684
1202.433, 359.5154
1202.915, 347.6260
1203.397, 358.3852
1203.880, 375.1515
1204.362, 379.1775
1204.844, 373.2931
1205.326, 371.1111
1205.808, 373.8573
1206.290, 372.7343
1206.772, 367.3253
1207.254, 361.0394
1207.737, 354.3823
1208.219, 357.0569
1208.701, 374.4861
1209.183, 389.5424
1209.665, 380.9729
1210.147, 363.1029
1210.629, 360.2601
1211.111, 364.6672
1211.594, 362.4322
1212.076, 356.8532
1212.558, 357.0536
1213.040, 362.8223
1213.522, 367.1280
1214.004, 367.5980
1214.486, 367.1099
1214.968, 366.3740
1215.450, 365.3850
1215.932, 362.1867
1216.415, 361.0747
1216.897, 367.1976
1217.379, 373.9282
1217.861, 372.7042
1218.343, 366.7157
1218.825, 369.8461
1219.307, 384.2601
1219.789, 383.9194
1220.272, 368.0458
1220.754, 360.2460
1221.236, 364.3833
1221.718, 367.8297
1222.200, 364.9071
1222.682, 361.1087
1223.164, 361.4622
1223.646, 364.0619
1224.129, 368.0295
1224.611, 371.2690
1225.093, 369.5512
1225.575, 365.9840
1226.057, 366.1568
1226.539, 369.2403
1227.021, 370.4545
1227.503, 368.5745
1227.985, 366.6968
1228.468, 366.8725
1228.950, 364.9354
1229.432, 355.2284
1229.914, 351.1863
1230.396, 359.7938
1230.878, 372.6635
1231.360, 384.0519
1231.842, 391.9123
1232.324, 390.0198
1232.807, 379.8092
1233.289, 376.3311
1233.771, 377.7738
1234.253, 370.0323
1234.735, 353.8547
1235.217, 342.0345
1235.699, 338.6697
1236.181, 341.3453
1236.664, 350.9328
1237.146, 356.2946
1237.628, 341.2329
1238.110, 326.5478
1238.592, 329.0993
1239.074, 339.2142
1239.556, 353.4002
1240.038, 364.4379
1240.521, 355.6846
1241.003, 327.1697
1241.485, 316.4062
1241.967, 331.3908
1242.449, 342.5230
1242.931, 348.7208
1243.413, 353.7859
1243.895, 358.6377
1244.377, 361.7131
1244.859, 361.7709
1245.342, 363.1154
1245.824, 372.7178
1246.306, 384.4205
1246.788, 384.4098
1247.270, 378.3760
1247.752, 376.7160
1248.234, 377.9549
1248.716, 377.8282
1249.199, 375.7788
1249.681, 372.2400
1250.163, 366.9204
1250.645, 365.2418
1251.127, 372.5728
1251.609, 378.4272
1252.091, 379.6740
1252.573, 379.6892
1253.056, 379.8889
1253.538, 379.3297
1254.020, 377.1685
1254.502, 373.6399
1254.984, 368.8073
1255.466, 363.0800
1255.948, 360.4666
1256.430, 360.6288
1256.912, 361.6158
1257.395, 363.1088
1257.877, 365.3081
1258.359, 367.9709
1258.841, 369.1247
1259.323, 367.1956
1259.805, 365.8462
1260.287, 368.5145
1260.769, 371.5991
1261.251, 374.0562
1261.734, 374.7522
1262.216, 371.6249
1262.698, 366.8725
1263.180, 362.5152
1263.662, 359.5240
1264.144, 363.9771
1264.626, 379.1376
1265.108, 380.9836
1265.591, 367.8813
1266.073, 361.8730
1266.555, 366.5369
1267.037, 372.1818
1267.519, 374.5942
1268.001, 373.4779
1268.483, 367.4538
1268.965, 361.6926
1269.448, 362.9972
1269.930, 367.0682
1270.412, 369.7036
1270.894, 371.9547
1271.376, 377.5926
1271.858, 383.1648
1272.340, 382.1179
1272.822, 373.6966
##END=



