##NAMES=Eveite
##RRUFFID=R100048
##IDEAL CHEMISTRY=Mn^2+^_2_As^5+^O_4_(OH)
##LOCALITY=Langban, Filipstad, Varmland, Sweden
##OWNER=RRUFF
##SOURCE=William W Pinch
##DESCRIPTION=Groups of very pale green (gray) crystals associated with pink akrochordite, R100028, and colorless barite, co-type (Flink 32/22). Used for structure refinement in Yang et al (2011)
##STATUS=The identification of this mineral has been confirmed by single-crystal X-ray diffraction.
##URL=rruff.info/R100048
91.53320, 278.5941
92.01532, 279.3961
92.49744, 279.0580
92.97955, 281.5675
93.46167, 283.1457
93.94379, 280.9761
94.42590, 276.2276
94.90802, 270.7001
95.39014, 265.7760
95.87225, 261.7254
96.35437, 257.2870
96.83649, 251.5325
97.31860, 245.5447
97.80072, 240.4983
98.28284, 236.8673
98.76495, 234.1147
99.24707, 230.8594
99.72919, 226.5512
100.2113, 222.4284
100.6934, 217.9839
101.1755, 213.8166
101.6577, 211.1999
102.1398, 211.5127
102.6219, 215.6546
103.1040, 217.8314
103.5861, 216.4458
104.0682, 214.9053
104.5504, 215.9680
105.0325, 219.6783
105.5146, 223.0308
105.9967, 221.4606
106.4788, 212.2801
106.9609, 204.8902
107.4431, 200.3699
107.9252, 197.7233
108.4073, 195.7263
108.8894, 194.0338
109.3715, 192.7273
109.8536, 191.9569
110.3358, 191.7090
110.8179, 191.7460
111.3000, 192.4729
111.7821, 193.7263
112.2642, 193.7753
112.7463, 190.6097
113.2285, 186.7132
113.7106, 184.5624
114.1927, 184.7512
114.6748, 186.2598
115.1569, 187.7031
115.6390, 188.8772
116.1212, 190.5871
116.6033, 194.3621
117.0854, 198.2635
117.5675, 199.9880
118.0496, 198.0895
118.5317, 193.6418
119.0139, 191.8563
119.4960, 196.3249
119.9781, 199.8369
120.4602, 200.6779
120.9423, 199.6477
121.4244, 198.2274
121.9066, 197.4975
122.3887, 197.4741
122.8708, 198.0215
123.3529, 200.0070
123.8350, 201.6765
124.3171, 201.8675
124.7993, 200.7020
125.2814, 199.4810
125.7635, 199.6953
126.2456, 201.8364
126.7277, 202.5369
127.2098, 199.6936
127.6920, 196.3029
128.1741, 196.1672
128.6562, 200.5377
129.1383, 205.7048
129.6204, 206.1053
130.1025, 202.3035
130.5847, 199.6868
131.0668, 201.5255
131.5489, 206.5104
132.0310, 209.8808
132.5131, 209.4107
132.9952, 208.4251
133.4774, 209.9750
133.9595, 214.0973
134.4416, 218.7573
134.9237, 222.6034
135.4058, 225.7900
135.8879, 227.1673
136.3701, 224.8788
136.8522, 221.7211
137.3343, 219.6048
137.8164, 218.9266
138.2985, 218.1447
138.7806, 214.2979
139.2628, 204.8269
139.7449, 196.8755
140.2270, 191.9265
140.7091, 188.1462
141.1912, 183.7122
141.6733, 177.8287
142.1555, 171.1979
142.6376, 166.3405
143.1197, 164.6700
143.6018, 163.3483
144.0839, 162.1182
144.5660, 161.0525
145.0482, 160.3751
145.5303, 160.2763
146.0124, 160.6297
146.4945, 160.4719
146.9766, 159.3537
147.4587, 158.2869
147.9409, 157.9374
148.4230, 158.1210
148.9051, 157.9417
149.3872, 156.6295
149.8693, 154.3661
150.3514, 152.5349
150.8336, 150.8317
151.3157, 149.7685
151.7978, 150.1889
152.2799, 152.3285
152.7620, 154.3840
153.2441, 155.2760
153.7263, 155.1407
154.2084, 153.8682
154.6905, 149.8910
155.1726, 144.9617
155.6547, 143.3162
156.1368, 146.6403
156.6190, 150.3438
157.1011, 152.0001
157.5832, 152.1821
158.0653, 151.9833
158.5474, 152.1450
159.0295, 152.5999
159.5117, 152.4062
159.9938, 150.3992
160.4759, 148.8936
160.9580, 149.0668
161.4401, 150.5055
161.9222, 152.0392
162.4044, 152.5368
162.8865, 151.7351
163.3686, 151.4589
163.8507, 152.7624
164.3328, 153.6615
164.8149, 152.7624
165.2971, 150.3091
165.7792, 147.8351
166.2613, 147.1367
166.7434, 148.8409
167.2255, 150.7751
167.7076, 154.6998
168.1898, 157.6915
168.6719, 156.7452
169.1540, 151.5557
169.6361, 145.3904
170.1182, 143.0341
170.6003, 146.7860
171.0825, 148.6429
171.5646, 146.4844
172.0467, 142.9468
172.5288, 141.1880
173.0109, 142.2189
173.4930, 144.4415
173.9752, 145.1149
174.4573, 144.0042
174.9394, 143.4289
175.4215, 144.7776
175.9036, 147.1442
176.3857, 148.4853
176.8679, 148.1240
177.3500, 146.6246
177.8321, 144.2815
178.3142, 140.8321
178.7963, 138.7409
179.2784, 140.6454
179.7606, 145.9420
180.2427, 149.5446
180.7248, 149.3562
181.2069, 147.4803
181.6890, 145.3632
182.1711, 143.0559
182.6533, 141.5972
183.1354, 142.5582
183.6175, 146.3670
184.0996, 149.2012
184.5817, 149.6897
185.0638, 149.1902
185.5460, 148.0716
186.0281, 146.4616
186.5102, 144.9140
186.9923, 144.2282
187.4744, 144.6360
187.9565, 145.3469
188.4387, 146.2794
188.9208, 147.4160
189.4029, 148.7820
189.8850, 150.3832
190.3671, 152.1298
190.8492, 153.9434
191.3314, 156.2475
191.8135, 157.8234
192.2956, 158.9290
192.7777, 159.2239
193.2598, 158.0040
193.7419, 155.0525
194.2241, 151.3047
194.7062, 149.0154
195.1883, 149.2619
195.6704, 149.9207
196.1525, 151.5262
196.6346, 153.3353
197.1168, 154.3126
197.5989, 153.9713
198.0810, 152.9354
198.5631, 153.0520
199.0452, 155.3827
199.5273, 157.3785
200.0095, 158.7966
200.4916, 159.6009
200.9737, 159.5942
201.4558, 158.5472
201.9379, 156.9097
202.4200, 156.0250
202.9022, 156.3963
203.3843, 156.4964
203.8664, 155.1265
204.3485, 152.9734
204.8306, 152.0554
205.3127, 153.5428
205.7949, 156.4944
206.2770, 158.7709
206.7591, 160.3571
207.2412, 161.4408
207.7233, 162.0746
208.2054, 162.2770
208.6876, 162.0936
209.1697, 161.2667
209.6518, 160.2615
210.1339, 159.6938
210.6160, 159.5736
211.0981, 159.9353
211.5803, 161.1572
212.0624, 163.2417
212.5445, 164.7567
213.0266, 164.6160
213.5087, 164.0008
213.9908, 163.9458
214.4730, 164.6068
214.9551, 165.7858
215.4372, 167.5324
215.9193, 170.0419
216.4014, 171.9446
216.8836, 172.4470
217.3657, 172.4038
217.8478, 172.1532
218.3299, 171.7634
218.8120, 171.5969
219.2941, 172.2644
219.7763, 174.0591
220.2584, 175.7231
220.7405, 177.3777
221.2226, 178.6321
221.7047, 179.3815
222.1868, 179.5621
222.6690, 178.8084
223.1511, 176.0949
223.6332, 169.6029
224.1153, 165.3735
224.5974, 165.5774
225.0795, 166.8598
225.5617, 166.9438
226.0438, 165.1568
226.5259, 162.2006
227.0080, 159.1893
227.4901, 155.8462
227.9722, 153.0332
228.4544, 151.0445
228.9365, 149.3522
229.4186, 147.4195
229.9007, 145.1509
230.3828, 143.0399
230.8649, 142.0171
231.3471, 143.1218
231.8292, 143.6919
232.3113, 143.0926
232.7934, 142.3713
233.2755, 142.5555
233.7576, 143.8747
234.2398, 145.5979
234.7219, 146.5263
235.2040, 146.4434
235.6861, 145.7626
236.1682, 143.7812
236.6503, 141.5915
237.1325, 140.2050
237.6146, 139.8864
238.0967, 140.1889
238.5788, 140.5085
239.0609, 140.9636
239.5430, 141.1076
240.0252, 140.7305
240.5073, 140.1292
240.9894, 139.5362
241.4715, 139.0060
241.9536, 138.6047
242.4357, 138.4215
242.9179, 138.4704
243.4000, 138.7148
243.8821, 139.3689
244.3642, 140.1188
244.8463, 140.8166
245.3284, 141.4661
245.8106, 141.5397
246.2927, 140.0510
246.7748, 136.9171
247.2569, 134.4390
247.7390, 132.8923
248.2211, 132.1947
248.7033, 132.7159
249.1854, 134.7077
249.6675, 136.3934
250.1496, 135.7856
250.6317, 133.1677
251.1138, 130.0723
251.5960, 124.9328
252.0781, 120.2546
252.5602, 120.2716
253.0423, 126.1350
253.5244, 132.2267
254.0065, 132.8563
254.4887, 129.7109
254.9708, 127.1718
255.4529, 126.4379
255.9350, 126.8694
256.4171, 127.8188
256.8992, 129.4104
257.3813, 130.8606
257.8635, 131.8290
258.3456, 132.2585
258.8277, 131.8287
259.3098, 129.6946
259.7919, 127.0967
260.2740, 125.8587
260.7562, 126.1697
261.2383, 127.0221
261.7204, 128.5613
262.2025, 130.1291
262.6846, 130.6762
263.1667, 129.1777
263.6489, 127.4146
264.1310, 128.5797
264.6131, 133.6491
265.0952, 137.3882
265.5773, 135.9042
266.0594, 132.4873
266.5416, 130.0646
267.0237, 129.4803
267.5058, 129.9522
267.9879, 130.4675
268.4700, 130.9623
268.9521, 131.8025
269.4343, 133.5370
269.9164, 135.4583
270.3985, 136.9500
270.8806, 137.8309
271.3627, 138.6206
271.8448, 140.2338
272.3270, 143.0203
272.8091, 144.8313
273.2912, 144.1363
273.7733, 142.9137
274.2554, 142.4634
274.7375, 142.9817
275.2197, 143.5488
275.7018, 142.8980
276.1839, 140.7381
276.6660, 139.2733
277.1481, 139.6415
277.6302, 140.2040
278.1124, 140.1958
278.5945, 139.5574
279.0766, 138.6510
279.5587, 137.5858
280.0408, 136.2397
280.5229, 135.8251
281.0051, 137.7958
281.4872, 139.5391
281.9693, 139.9028
282.4514, 139.0201
282.9335, 137.6476
283.4156, 136.1690
283.8978, 134.5616
284.3799, 133.9223
284.8620, 135.0734
285.3441, 136.4501
285.8262, 137.6241
286.3083, 138.6013
286.7905, 139.4568
287.2726, 140.1394
287.7547, 140.7220
288.2368, 142.0151
288.7189, 145.8147
289.2010, 148.0873
289.6832, 146.6776
290.1653, 143.3111
290.6474, 140.5610
291.1295, 139.9391
291.6116, 140.9832
292.0938, 141.8823
292.5759, 142.7536
293.0580, 143.2600
293.5401, 143.1446
294.0222, 142.7458
294.5043, 142.3786
294.9865, 142.1754
295.4686, 142.1834
295.9507, 142.5608
296.4328, 143.6138
296.9149, 144.4958
297.3970, 144.6781
297.8792, 144.9001
298.3613, 145.9724
298.8434, 148.0941
299.3255, 150.5606
299.8076, 152.1595
300.2897, 152.4406
300.7719, 152.8434
301.2540, 153.9190
301.7361, 154.7795
302.2182, 154.3093
302.7003, 152.6278
303.1824, 151.3401
303.6646, 152.7511
304.1467, 158.0664
304.6288, 161.6693
305.1109, 163.0407
305.5930, 163.3036
306.0751, 162.2027
306.5573, 160.2508
307.0394, 158.7667
307.5215, 159.1478
308.0036, 161.5979
308.4857, 162.9382
308.9678, 162.3906
309.4500, 161.4412
309.9321, 160.1212
310.4142, 158.7197
310.8963, 157.7439
311.3784, 157.6092
311.8605, 158.1557
312.3427, 158.0911
312.8248, 155.9934
313.3069, 154.9871
313.7890, 156.1064
314.2711, 158.4777
314.7532, 161.2297
315.2354, 163.9770
315.7175, 166.3368
316.1996, 166.9686
316.6817, 163.6925
317.1638, 162.1984
317.6459, 164.1734
318.1281, 167.4118
318.6102, 170.0930
319.0923, 171.6047
319.5744, 172.3128
320.0565, 172.8587
320.5386, 173.5294
321.0208, 173.3029
321.5029, 171.0659
321.9850, 168.8662
322.4671, 168.4797
322.9492, 169.8011
323.4313, 170.9288
323.9135, 169.4733
324.3956, 164.6538
324.8777, 161.2254
325.3598, 159.7233
325.8419, 159.1088
326.3240, 159.6284
326.8062, 160.7905
327.2883, 161.4895
327.7704, 160.7030
328.2525, 158.5628
328.7346, 157.4111
329.2167, 158.1229
329.6989, 158.9086
330.1810, 159.5730
330.6631, 159.9815
331.1452, 159.9172
331.6273, 159.2207
332.1094, 158.1247
332.5916, 157.3580
333.0737, 157.1005
333.5558, 156.8881
334.0379, 156.4622
334.5200, 156.1227
335.0021, 156.2154
335.4843, 156.8412
335.9664, 157.7110
336.4485, 158.1892
336.9306, 157.7798
337.4127, 158.4981
337.8948, 162.5513
338.3770, 166.2134
338.8591, 166.8180
339.3412, 164.4121
339.8233, 161.3452
340.3055, 160.0777
340.7876, 160.8436
341.2697, 161.0674
341.7518, 159.8654
342.2339, 158.9831
342.7160, 159.2872
343.1982, 160.4651
343.6803, 161.7090
344.1624, 162.5236
344.6445, 162.9572
345.1266, 163.2205
345.6087, 163.1719
346.0909, 163.1838
346.5730, 163.7197
347.0551, 164.2696
347.5372, 164.0173
348.0193, 162.4607
348.5014, 160.5421
348.9836, 160.2017
349.4657, 162.0845
349.9478, 163.3801
350.4299, 162.8584
350.9120, 161.7758
351.3941, 160.9099
351.8763, 160.4195
352.3584, 160.2087
352.8405, 160.3803
353.3226, 160.9591
353.8047, 161.0061
354.2868, 159.9970
354.7690, 158.8192
355.2511, 158.0547
355.7332, 157.6339
356.2153, 157.1998
356.6974, 156.0451
357.1795, 154.6106
357.6617, 155.0368
358.1438, 158.6369
358.6259, 161.3730
359.1080, 159.8177
359.5901, 156.1544
360.0722, 153.9283
360.5544, 154.9630
361.0365, 157.3242
361.5186, 158.3250
362.0007, 157.8228
362.4828, 157.0001
362.9649, 156.0262
363.4471, 155.1485
363.9292, 154.7101
364.4113, 154.8371
364.8934, 154.9877
365.3755, 154.6347
365.8576, 153.8946
366.3398, 153.3790
366.8219, 153.1441
367.3040, 153.3229
367.7861, 154.2229
368.2682, 155.7643
368.7503, 157.1095
369.2325, 157.6220
369.7146, 157.8218
370.1967, 159.0244
370.6788, 161.6454
371.1609, 163.3566
371.6430, 161.6153
372.1252, 157.4207
372.6073, 154.1884
373.0894, 152.6168
373.5715, 151.9519
374.0536, 152.3125
374.5357, 153.3974
375.0179, 153.1848
375.5000, 150.1638
375.9821, 145.7248
376.4642, 143.2484
376.9463, 143.5026
377.4284, 143.6604
377.9106, 142.2691
378.3927, 140.1964
378.8748, 139.0831
379.3569, 139.4395
379.8390, 140.2451
380.3211, 140.3182
380.8033, 139.6373
381.2854, 138.1267
381.7675, 134.3800
382.2496, 130.8068
382.7317, 129.2873
383.2138, 129.8883
383.6960, 131.8633
384.1781, 135.0993
384.6602, 139.3393
385.1423, 140.9862
385.6244, 137.8191
386.1065, 135.0590
386.5887, 134.5408
387.0708, 135.5601
387.5529, 137.1312
388.0350, 138.8831
388.5171, 140.2984
388.9992, 140.2016
389.4814, 136.8382
389.9635, 134.6227
390.4456, 133.1282
390.9277, 133.0300
391.4098, 135.7707
391.8919, 141.0179
392.3741, 146.2771
392.8562, 148.9106
393.3383, 148.6247
393.8204, 147.9606
394.3025, 144.9412
394.7846, 143.5973
395.2668, 146.5098
395.7489, 151.9893
396.2310, 157.0332
396.7131, 159.9607
397.1952, 160.9865
397.6773, 160.7690
398.1595, 158.3679
398.6416, 156.2306
399.1237, 153.4179
399.6058, 151.6970
400.0879, 153.5293
400.5700, 159.1023
401.0522, 165.0069
401.5343, 166.7912
402.0164, 163.6531
402.4985, 161.0406
402.9806, 158.2896
403.4627, 157.0133
403.9449, 159.0720
404.4270, 163.2615
404.9091, 166.5592
405.3912, 166.9256
405.8733, 165.1308
406.3554, 163.2108
406.8376, 160.4232
407.3197, 159.3799
407.8018, 163.1018
408.2839, 168.1502
408.7660, 170.7570
409.2481, 169.7429
409.7303, 167.9680
410.2124, 168.4769
410.6945, 171.1074
411.1766, 173.2730
411.6587, 174.1788
412.1408, 174.7906
412.6230, 175.8587
413.1051, 177.3762
413.5872, 179.3960
414.0693, 182.4048
414.5514, 185.7603
415.0335, 188.4733
415.5157, 190.4824
415.9978, 191.8705
416.4799, 192.1620
416.9620, 191.9592
417.4441, 193.0648
417.9262, 196.3452
418.4084, 199.8796
418.8905, 202.5892
419.3726, 204.7052
419.8547, 206.7906
420.3368, 209.0280
420.8189, 211.3537
421.3011, 213.8010
421.7832, 216.6394
422.2653, 218.4612
422.7474, 218.1676
423.2295, 217.4344
423.7116, 217.6377
424.1938, 218.8806
424.6759, 220.5623
425.1580, 222.1599
425.6401, 223.7318
426.1222, 226.4688
426.6043, 232.2594
427.0865, 236.8371
427.5686, 238.1323
428.0507, 237.9048
428.5328, 238.8156
429.0149, 241.8601
429.4970, 245.7032
429.9792, 247.9504
430.4613, 247.6097
430.9434, 247.8172
431.4255, 248.8289
431.9076, 250.0583
432.3897, 251.4812
432.8719, 252.8724
433.3540, 253.6404
433.8361, 253.0870
434.3182, 251.5518
434.8003, 251.7655
435.2824, 256.2483
435.7646, 258.5070
436.2467, 255.6693
436.7288, 250.6989
437.2109, 246.5758
437.6930, 244.2277
438.1751, 242.9221
438.6573, 242.1072
439.1394, 241.8793
439.6215, 240.6985
440.1036, 237.7661
440.5857, 234.4446
441.0678, 231.5747
441.5500, 229.0820
442.0321, 226.6345
442.5142, 224.3898
442.9963, 221.9485
443.4784, 218.4163
443.9605, 213.6775
444.4427, 208.7094
444.9248, 203.7634
445.4069, 199.0261
445.8890, 194.8742
446.3711, 191.4846
446.8532, 188.1889
447.3354, 184.4333
447.8175, 180.5380
448.2996, 177.2571
448.7817, 174.8037
449.2638, 172.7083
449.7459, 170.5048
450.2281, 168.1823
450.7102, 166.0287
451.1923, 164.4100
451.6744, 162.6463
452.1565, 159.8453
452.6386, 156.4822
453.1208, 154.1442
453.6029, 153.7643
454.0850, 154.5429
454.5671, 154.2611
455.0492, 151.9091
455.5313, 149.8136
456.0135, 147.4011
456.4956, 145.6537
456.9777, 145.8107
457.4598, 147.7254
457.9419, 149.8262
458.4240, 150.6274
458.9062, 150.1101
459.3883, 149.4701
459.8704, 148.0679
460.3525, 147.2971
460.8346, 148.0418
461.3167, 149.3717
461.7989, 149.9480
462.2810, 149.2461
462.7631, 148.2752
463.2452, 148.8350
463.7273, 151.3078
464.2094, 153.0055
464.6916, 152.7788
465.1737, 152.4518
465.6558, 153.2265
466.1379, 154.8555
466.6200, 156.3239
467.1021, 157.2498
467.5843, 157.5795
468.0664, 156.7000
468.5485, 154.2766
469.0306, 153.1137
469.5127, 155.1324
469.9948, 158.8304
470.4770, 161.9345
470.9591, 164.4774
471.4412, 166.0198
471.9233, 165.7413
472.4054, 164.4622
472.8875, 163.8323
473.3697, 164.1929
473.8518, 164.3840
474.3339, 163.1929
474.8160, 160.6365
475.2981, 158.8494
475.7802, 160.0510
476.2624, 159.6899
476.7445, 154.0078
477.2266, 145.5688
477.7087, 139.3876
478.1908, 137.4255
478.6729, 137.8615
479.1551, 137.4500
479.6372, 135.6935
480.1193, 134.2212
480.6014, 133.1520
481.0835, 132.2121
481.5656, 131.2713
482.0478, 130.3312
482.5299, 129.4338
483.0120, 128.5970
483.4941, 127.8448
483.9762, 127.3269
484.4583, 127.2253
484.9405, 126.9867
485.4226, 126.2599
485.9047, 125.5295
486.3868, 125.1355
486.8689, 125.1347
487.3510, 125.4530
487.8332, 125.8462
488.3153, 126.4532
488.7974, 128.3349
489.2795, 132.3441
489.7616, 135.6023
490.2437, 135.5383
490.7259, 133.7621
491.2080, 132.5400
491.6901, 132.0803
492.1722, 132.6191
492.6543, 135.3134
493.1364, 139.1975
493.6186, 141.3070
494.1007, 140.7215
494.5828, 138.9070
495.0649, 136.8493
495.5470, 134.3869
496.0291, 135.1620
496.5113, 142.9251
496.9934, 150.5834
497.4755, 153.5767
497.9576, 153.1336
498.4397, 152.6007
498.9218, 153.5677
499.4040, 155.4596
499.8861, 156.9782
500.3682, 157.6643
500.8503, 158.8176
501.3324, 160.8916
501.8145, 162.9939
502.2967, 164.5731
502.7788, 165.6815
503.2609, 166.6881
503.7430, 167.8516
504.2251, 169.1178
504.7072, 170.3056
505.1894, 171.5393
505.6715, 172.4092
506.1536, 173.0123
506.6357, 173.0924
507.1178, 171.9447
507.5999, 169.6154
508.0821, 167.8947
508.5642, 169.0308
509.0463, 171.7765
509.5284, 172.3304
510.0105, 170.2137
510.4926, 167.0381
510.9748, 163.3630
511.4569, 159.4242
511.9390, 155.7631
512.4211, 152.4859
512.9032, 149.3915
513.3853, 146.3506
513.8674, 143.4437
514.3495, 140.9693
514.8317, 138.9686
515.3138, 136.9101
515.7959, 134.1427
516.2780, 130.5602
516.7601, 127.8286
517.2422, 126.0950
517.7244, 124.8835
518.2065, 124.8350
518.6886, 124.9425
519.1707, 123.5629
519.6528, 120.1842
520.1349, 116.0826
520.6171, 113.2254
521.0992, 111.9022
521.5813, 110.6424
522.0634, 109.1760
522.5455, 108.0671
523.0276, 107.8023
523.5098, 108.0037
523.9919, 107.9488
524.4740, 107.2657
524.9561, 106.3452
525.4382, 105.7743
525.9203, 105.5638
526.4025, 105.2276
526.8846, 104.4787
527.3667, 103.8121
527.8488, 103.9616
528.3309, 104.7484
528.8130, 104.9524
529.2952, 103.7564
529.7773, 102.1804
530.2594, 101.2499
530.7415, 100.8150
531.2236, 99.91578
531.7057, 97.94153
532.1879, 95.83862
532.6700, 95.56711
533.1521, 98.54682
533.6342, 100.1135
534.1163, 99.33501
534.5984, 97.84314
535.0806, 96.16561
535.5627, 94.68186
536.0448, 94.21578
536.5269, 95.41309
537.0090, 97.41216
537.4911, 97.30053
537.9733, 93.26766
538.4554, 91.14167
538.9375, 93.27866
539.4196, 96.04562
539.9017, 97.40625
540.3839, 97.32409
540.8660, 96.71033
541.3481, 96.25120
541.8302, 95.60087
542.3123, 93.68221
542.7944, 90.29861
543.2766, 87.30490
543.7587, 84.80682
544.2408, 83.68949
544.7229, 85.73215
545.2050, 91.45878
545.6871, 95.58180
546.1693, 95.43126
546.6514, 93.29963
547.1335, 91.15296
547.6156, 89.31419
548.0977, 88.31662
548.5798, 88.62273
549.0620, 89.78926
549.5441, 90.31863
550.0262, 89.79420
550.5083, 89.13766
550.9904, 87.53333
551.4725, 86.41680
551.9547, 87.52090
552.4368, 90.31574
552.9189, 92.45520
553.4010, 91.98357
553.8831, 89.72966
554.3652, 89.26254
554.8474, 91.66688
555.3295, 93.12112
555.8116, 91.62319
556.2937, 89.52725
556.7758, 88.52977
557.2579, 88.70167
557.7401, 88.95402
558.2222, 88.61299
558.7043, 87.96066
559.1864, 87.15656
559.6685, 86.20864
560.1506, 86.54514
560.6328, 89.58881
561.1149, 93.64230
561.5970, 94.75566
562.0791, 92.17075
562.5612, 89.76427
563.0433, 88.13433
563.5255, 87.04339
564.0076, 86.60543
564.4897, 86.58016
564.9718, 86.06174
565.4539, 84.35371
565.9360, 82.11653
566.4182, 81.76725
566.9003, 85.21487
567.3824, 86.91962
567.8645, 84.22688
568.3466, 81.80515
568.8287, 83.28926
569.3109, 87.90330
569.7930, 92.10904
570.2751, 93.92651
570.7572, 93.76457
571.2393, 91.91454
571.7214, 88.17519
572.2036, 85.26027
572.6857, 84.15200
573.1678, 84.15158
573.6499, 84.55188
574.1320, 85.33760
574.6141, 86.13728
575.0963, 87.16943
575.5784, 87.91730
576.0605, 87.71806
576.5426, 86.81178
577.0247, 85.97168
577.5068, 85.52925
577.9890, 85.47751
578.4711, 85.86694
578.9532, 87.10526
579.4353, 87.72768
579.9174, 86.52692
580.3995, 85.98663
580.8817, 88.52813
581.3638, 92.40979
581.8459, 94.02616
582.3280, 91.52529
582.8101, 87.30225
583.2922, 85.35709
583.7744, 85.88596
584.2565, 85.81413
584.7386, 84.19026
585.2207, 82.68555
585.7029, 82.89845
586.1850, 84.13438
586.6671, 84.55905
587.1492, 83.07041
587.6313, 81.54465
588.1135, 81.42982
588.5956, 82.30636
589.0777, 83.27415
589.5598, 84.11132
590.0419, 84.85169
590.5240, 85.61581
591.0062, 86.44062
591.4883, 86.34681
591.9704, 84.15750
592.4525, 82.58750
592.9346, 82.93765
593.4167, 83.93888
593.8989, 84.05733
594.3810, 82.99684
594.8631, 81.66661
595.3452, 80.92999
595.8273, 80.76591
596.3094, 80.87180
596.7916, 81.14027
597.2737, 81.92688
597.7558, 84.17776
598.2379, 86.63870
598.7200, 87.94530
599.2021, 87.89217
599.6843, 87.30432
600.1664, 85.75015
600.6485, 84.32828
601.1306, 85.37646
601.6127, 88.66628
602.0948, 90.59119
602.5770, 88.73844
603.0591, 84.70122
603.5412, 82.90309
604.0233, 85.48795
604.5054, 86.86061
604.9875, 85.79482
605.4697, 84.61644
605.9518, 84.99010
606.4339, 86.51627
606.9160, 87.95837
607.3981, 88.69922
607.8802, 88.65659
608.3624, 87.42886
608.8445, 84.83714
609.3266, 82.39548
609.8087, 79.71270
610.2908, 78.08995
610.7729, 79.02239
611.2551, 81.74044
611.7372, 83.98597
612.2193, 85.18116
612.7014, 85.74745
613.1835, 85.88229
613.6656, 85.62587
614.1478, 84.83713
614.6299, 83.49419
615.1120, 82.45389
615.5941, 82.68526
616.0762, 84.19658
616.5583, 85.18754
617.0405, 85.23109
617.5226, 85.29238
618.0047, 85.81266
618.4868, 86.24842
618.9689, 86.01824
619.4510, 85.07357
619.9332, 83.81310
620.4153, 82.30971
620.8974, 80.81291
621.3795, 80.37504
621.8616, 81.17931
622.3438, 82.10967
622.8259, 83.02851
623.3080, 83.62492
623.7901, 83.32031
624.2722, 82.04969
624.7543, 81.19236
625.2365, 81.24046
625.7186, 81.73572
626.2007, 82.89377
626.6828, 84.19188
627.1649, 83.91931
627.6470, 81.31080
628.1292, 78.23409
628.6113, 77.89997
629.0934, 81.27299
629.5755, 83.35335
630.0576, 83.36118
630.5397, 82.82894
631.0219, 81.86276
631.5040, 80.73573
631.9861, 79.62612
632.4682, 78.56589
632.9503, 78.07619
633.4324, 79.10623
633.9146, 81.09054
634.3967, 81.99934
634.8788, 81.53160
635.3609, 81.40015
635.8430, 82.91920
636.3251, 85.30270
636.8073, 86.11118
637.2894, 84.47134
637.7715, 83.60126
638.2536, 84.68714
638.7357, 86.13988
639.2178, 86.89487
639.7000, 86.92549
640.1821, 86.47385
640.6642, 85.63520
641.1463, 84.70867
641.6284, 84.43089
642.1105, 85.03223
642.5927, 84.99711
643.0748, 83.51714
643.5569, 82.25781
644.0390, 82.21347
644.5211, 83.01246
645.0032, 83.99577
645.4854, 85.24377
645.9675, 86.08067
646.4496, 85.41752
646.9317, 84.22610
647.4138, 84.69306
647.8959, 87.00533
648.3781, 88.99844
648.8602, 88.99879
649.3423, 87.42283
649.8244, 86.24173
650.3065, 86.09839
650.7886, 85.36854
651.2708, 82.86775
651.7529, 80.75465
652.2350, 80.80314
652.7171, 82.51440
653.1992, 84.20097
653.6813, 85.04051
654.1635, 85.26685
654.6456, 85.16402
655.1277, 84.74313
655.6098, 83.97550
656.0919, 82.55161
656.5740, 81.71046
657.0562, 83.23596
657.5383, 86.52418
658.0204, 87.35270
658.5025, 82.78239
658.9846, 79.42220
659.4667, 79.81961
659.9489, 81.98124
660.4310, 84.33328
660.9131, 86.36718
661.3952, 87.60791
661.8773, 87.61194
662.3594, 86.77269
662.8416, 86.43376
663.3237, 86.77724
663.8058, 86.96791
664.2879, 87.09587
664.7700, 86.75793
665.2521, 85.04807
665.7343, 82.58464
666.2164, 81.48582
666.6985, 82.81268
667.1806, 85.04050
667.6627, 88.18382
668.1448, 91.18530
668.6270, 91.56513
669.1091, 88.98933
669.5912, 85.77370
670.0733, 83.84234
670.5554, 83.11436
671.0375, 82.93645
671.5197, 82.95586
672.0018, 84.17593
672.4839, 88.61750
672.9660, 92.55673
673.4481, 93.06991
673.9302, 90.71965
674.4124, 87.95394
674.8945, 85.58142
675.3766, 84.05386
675.8587, 84.29414
676.3408, 85.96911
676.8229, 87.75500
677.3051, 89.49470
677.7872, 90.45689
678.2693, 89.78818
678.7514, 87.66319
679.2335, 86.09831
679.7156, 85.02483
680.1978, 84.52969
680.6799, 84.86067
681.1620, 85.59500
681.6441, 86.52205
682.1262, 87.53101
682.6083, 88.47134
683.0905, 89.30798
683.5726, 89.90146
684.0547, 89.83535
684.5368, 89.11144
685.0189, 88.74197
685.5010, 89.12123
685.9832, 89.41364
686.4653, 88.63886
686.9474, 87.12106
687.4295, 86.52961
687.9116, 87.60990
688.3937, 88.65181
688.8759, 88.88073
689.3580, 89.02251
689.8401, 90.36510
690.3222, 92.50035
690.8043, 93.27242
691.2864, 91.06701
691.7686, 87.39889
692.2507, 86.19973
692.7328, 87.99837
693.2149, 88.80727
693.6970, 87.34975
694.1791, 85.89392
694.6613, 86.67399
695.1434, 88.54747
695.6255, 88.77190
696.1076, 85.85355
696.5897, 83.47266
697.0718, 83.77757
697.5540, 85.25403
698.0361, 86.24917
698.5182, 86.58261
699.0003, 86.61095
699.4824, 86.53461
699.9645, 86.39480
700.4467, 86.38136
700.9288, 86.71016
701.4109, 86.29256
701.8930, 83.89787
702.3751, 82.20906
702.8572, 83.25291
703.3394, 85.61398
703.8215, 86.80009
704.3036, 86.03563
704.7857, 85.18577
705.2678, 85.84477
705.7499, 86.76977
706.2321, 85.76590
706.7142, 83.14829
707.1963, 81.38551
707.6784, 81.80562
708.1605, 83.49284
708.6426, 84.69002
709.1248, 85.37779
709.6069, 85.63454
710.0890, 85.04166
710.5711, 84.50294
711.0532, 84.11330
711.5353, 84.05083
712.0175, 84.79987
712.4996, 86.50858
712.9817, 87.70979
713.4638, 86.81540
713.9459, 85.27695
714.4280, 85.54069
714.9102, 87.23304
715.3923, 87.84708
715.8744, 86.22294
716.3565, 83.97584
716.8386, 83.58365
717.3207, 85.41688
717.8029, 86.41962
718.2850, 85.77538
718.7671, 85.28447
719.2492, 85.73212
719.7313, 86.28013
720.2134, 86.05862
720.6956, 84.99478
721.1777, 83.67757
721.6598, 81.55286
722.1419, 79.97511
722.6240, 81.68324
723.1061, 85.66875
723.5883, 87.59567
724.0704, 86.08505
724.5525, 83.84846
725.0346, 83.79385
725.5167, 85.85139
725.9988, 87.31532
726.4810, 88.19968
726.9631, 88.42980
727.4452, 87.47771
727.9273, 86.32595
728.4094, 85.61390
728.8915, 85.37455
729.3737, 85.40665
729.8558, 85.48936
730.3379, 86.02462
730.8200, 88.47755
731.3021, 91.65421
731.7842, 91.56020
732.2664, 87.57087
732.7485, 83.68208
733.2306, 82.94889
733.7127, 84.64959
734.1948, 85.94600
734.6769, 86.51645
735.1591, 87.26651
735.6412, 89.33847
736.1233, 90.46838
736.6054, 88.17831
737.0875, 84.43851
737.5696, 83.25521
738.0518, 86.26929
738.5339, 89.60799
739.0160, 89.67336
739.4981, 88.16736
739.9802, 88.46618
740.4623, 90.57569
740.9445, 92.28468
741.4266, 92.46432
741.9087, 91.74338
742.3908, 91.19213
742.8729, 90.76663
743.3550, 90.69910
743.8372, 91.48344
744.3193, 92.03304
744.8014, 91.78574
745.2835, 91.31624
745.7656, 91.60046
746.2477, 92.65610
746.7299, 92.74243
747.2120, 89.22472
747.6941, 85.49812
748.1762, 86.18540
748.6583, 90.03407
749.1404, 93.17400
749.6226, 94.48682
750.1047, 94.66187
750.5868, 94.21595
751.0689, 93.27248
751.5510, 93.19512
752.0331, 94.32240
752.5153, 95.67159
752.9974, 97.84956
753.4795, 99.53864
753.9616, 99.68404
754.4437, 98.61967
754.9258, 97.40044
755.4080, 95.95501
755.8901, 95.18069
756.3722, 95.77190
756.8543, 97.37611
757.3364, 100.1005
757.8185, 103.5148
758.3007, 105.8012
758.7828, 105.8005
759.2649, 104.3079
759.7470, 102.7884
760.2291, 100.9564
760.7112, 100.5093
761.1934, 102.2017
761.6755, 104.1708
762.1576, 105.3409
762.6397, 106.3903
763.1218, 108.5660
763.6039, 112.2469
764.0861, 114.4974
764.5682, 112.5399
765.0503, 110.4053
765.5324, 111.8689
766.0145, 115.3806
766.4966, 117.5031
766.9788, 117.3587
767.4609, 116.8976
767.9430, 118.1600
768.4251, 120.7691
768.9072, 122.7602
769.3893, 123.9630
769.8715, 125.3814
770.3536, 127.2363
770.8357, 129.4176
771.3178, 131.9700
771.7999, 134.7950
772.2820, 137.3955
772.7642, 139.6655
773.2463, 141.8176
773.7284, 143.6905
774.2105, 145.6403
774.6926, 147.7525
775.1747, 150.2290
775.6569, 153.5768
776.1390, 158.1162
776.6211, 163.0393
777.1032, 167.1406
777.5853, 170.6144
778.0674, 174.6124
778.5496, 179.2222
779.0317, 184.3860
779.5138, 190.4031
779.9959, 196.4879
780.4780, 201.0079
780.9601, 203.1191
781.4423, 207.2049
781.9244, 214.4565
782.4065, 222.1172
782.8886, 229.7041
783.3707, 237.0076
783.8528, 243.6689
784.3350, 249.7962
784.8171, 256.2429
785.2992, 263.2940
785.7813, 271.2501
786.2634, 281.4124
786.7455, 292.8444
787.2277, 301.6631
787.7098, 307.1601
788.1919, 314.1250
788.6740, 326.5730
789.1561, 342.8014
789.6382, 356.2253
790.1204, 364.3634
790.6025, 375.5545
791.0846, 393.1386
791.5667, 410.5838
792.0488, 425.0048
792.5309, 437.5070
793.0131, 449.7693
793.4952, 461.9791
793.9773, 474.7908
794.4594, 490.4071
794.9415, 505.1673
795.4236, 514.6506
795.9058, 520.6126
796.3879, 527.1008
796.8700, 535.4821
797.3521, 545.4172
797.8342, 556.8893
798.3163, 569.5480
798.7985, 581.2526
799.2806, 591.6264
799.7627, 603.4176
800.2448, 617.8082
800.7269, 632.9689
801.2090, 647.5225
801.6912, 661.5524
802.1733, 675.8419
802.6554, 690.9726
803.1375, 705.4492
803.6196, 717.9344
804.1017, 730.5740
804.5839, 746.2377
805.0660, 762.9717
805.5481, 776.8012
806.0302, 786.3320
806.5123, 792.1591
806.9944, 794.6403
807.4766, 793.9785
807.9587, 790.8591
808.4408, 785.2143
808.9229, 775.5742
809.4050, 761.2040
809.8871, 744.1682
810.3693, 726.5441
810.8514, 708.3475
811.3335, 691.0052
811.8156, 673.5891
812.2977, 658.5378
812.7798, 646.4278
813.2620, 636.4290
813.7441, 628.6155
814.2262, 622.5043
814.7083, 616.6095
815.1904, 609.6398
815.6725, 605.0946
816.1547, 606.0333
816.6368, 609.6428
817.1189, 613.2275
817.6010, 616.4816
818.0831, 619.1657
818.5652, 621.2277
819.0474, 624.1833
819.5295, 630.2401
820.0116, 639.1173
820.4937, 648.4238
820.9758, 658.2667
821.4579, 667.8652
821.9401, 676.9243
822.4222, 685.7368
822.9043, 694.8371
823.3864, 704.1342
823.8685, 712.7402
824.3506, 721.6169
824.8328, 728.4504
825.3149, 733.1821
825.7970, 735.5037
826.2791, 736.3411
826.7612, 734.4363
827.2433, 726.9482
827.7255, 712.6195
828.2076, 694.1899
828.6897, 673.2838
829.1718, 650.1281
829.6539, 625.1529
830.1360, 598.3517
830.6182, 568.5527
831.1003, 535.3666
831.5824, 501.8510
832.0645, 471.8273
832.5466, 444.9698
833.0287, 419.2485
833.5109, 394.4673
833.9930, 371.6870
834.4751, 351.4189
834.9572, 332.9970
835.4393, 316.8647
835.9214, 302.3359
836.4036, 287.0809
836.8857, 269.1537
837.3678, 254.2252
837.8499, 245.5494
838.3320, 238.6695
838.8141, 230.2925
839.2963, 221.3963
839.7784, 214.3055
840.2605, 209.7085
840.7426, 206.1104
841.2247, 202.2318
841.7068, 198.3781
842.1890, 195.1755
842.6711, 192.5523
843.1532, 190.2350
843.6353, 188.1470
844.1174, 186.2133
844.5995, 184.3334
845.0817, 182.6023
845.5638, 181.5528
846.0459, 181.3978
846.5280, 181.2755
847.0101, 180.3269
847.4922, 180.4563
847.9744, 183.6658
848.4565, 188.1122
848.9386, 190.7643
849.4207, 191.0454
849.9028, 192.0583
850.3849, 194.3313
850.8671, 197.8880
851.3492, 203.2604
851.8313, 209.6463
852.3134, 216.4003
852.7955, 223.1293
853.2776, 229.0672
853.7598, 233.3079
854.2419, 237.3494
854.7240, 243.5488
855.2061, 251.5931
855.6882, 260.3007
856.1703, 269.4835
856.6525, 278.4478
857.1346, 286.6459
857.6167, 294.7608
858.0988, 304.0251
858.5809, 314.6697
859.0630, 324.9188
859.5452, 334.6611
860.0273, 344.1865
860.5094, 353.3082
860.9915, 362.4229
861.4736, 371.6171
861.9557, 381.0090
862.4379, 391.4307
862.9200, 405.4335
863.4021, 417.0658
863.8842, 422.7945
864.3663, 426.4620
864.8484, 431.0435
865.3306, 436.4935
865.8127, 442.3583
866.2948, 448.4115
866.7769, 452.7179
867.2590, 452.3424
867.7411, 449.2125
868.2233, 447.2494
868.7054, 446.3185
869.1875, 445.7060
869.6696, 445.2316
870.1517, 442.8545
870.6339, 436.4279
871.1160, 426.7800
871.5981, 417.8253
872.0802, 410.2314
872.5623, 400.7201
873.0444, 388.5668
873.5266, 375.1984
874.0087, 360.4903
874.4908, 345.4428
874.9729, 332.7508
875.4550, 323.3566
875.9371, 310.6899
876.4193, 290.0175
876.9014, 270.5752
877.3835, 256.6419
877.8656, 245.7910
878.3477, 235.4987
878.8298, 225.5028
879.3120, 216.5176
879.7941, 209.1423
880.2762, 202.3804
880.7583, 195.4667
881.2404, 188.4673
881.7225, 180.8454
882.2047, 173.0835
882.6868, 167.8289
883.1689, 166.2027
883.6510, 165.4374
884.1331, 161.8943
884.6152, 155.9860
885.0974, 150.7947
885.5795, 146.3095
886.0616, 142.8873
886.5437, 140.9461
887.0258, 139.2644
887.5079, 136.8226
887.9901, 133.8431
888.4722, 131.2173
888.9543, 129.3487
889.4364, 127.0460
889.9185, 123.1253
890.4006, 120.1616
890.8828, 120.1304
891.3649, 121.0512
891.8470, 120.5551
892.3291, 118.3961
892.8112, 115.7048
893.2933, 111.9782
893.7755, 108.9376
894.2576, 108.1648
894.7397, 108.3775
895.2218, 108.0644
895.7039, 107.1509
896.1860, 106.1775
896.6682, 105.3883
897.1503, 104.7949
897.6324, 104.5431
898.1145, 104.4678
898.5966, 104.1576
899.0787, 103.5808
899.5609, 102.4012
900.0430, 100.4586
900.5251, 98.62032
901.0072, 97.72010
901.4893, 97.62997
901.9714, 97.76908
902.4536, 98.15183
902.9357, 98.85160
903.4178, 100.7381
903.8999, 101.3405
904.3820, 98.15166
904.8641, 93.55102
905.3463, 92.16884
905.8284, 94.66462
906.3105, 94.87167
906.7926, 89.31004
907.2747, 85.32335
907.7568, 86.62894
908.2390, 89.23217
908.7211, 89.72608
909.2032, 88.31750
909.6853, 86.69866
910.1674, 85.31673
910.6495, 84.43236
911.1317, 84.47832
911.6138, 84.90710
912.0959, 84.87657
912.5780, 84.75437
913.0601, 85.96566
913.5422, 88.61378
914.0244, 90.34547
914.5065, 88.89298
914.9886, 85.61833
915.4707, 83.25820
915.9528, 81.69852
916.4349, 79.97533
916.9171, 77.95539
917.3992, 77.07472
917.8813, 78.28227
918.3634, 80.43588
918.8455, 81.75082
919.3276, 82.24040
919.8098, 81.41661
920.2919, 78.32642
920.7740, 76.41071
921.2561, 77.15251
921.7382, 78.44210
922.2203, 78.62276
922.7025, 77.92478
923.1846, 77.24893
923.6667, 76.31128
924.1488, 76.01020
924.6309, 77.37247
925.1130, 78.31374
925.5952, 77.62907
926.0773, 76.15020
926.5594, 74.86308
927.0415, 73.88188
927.5236, 72.78689
928.0057, 70.82662
928.4879, 69.55952
928.9700, 70.55651
929.4521, 72.41490
929.9342, 73.75494
930.4163, 74.42441
930.8984, 74.46398
931.3806, 73.92003
931.8627, 73.31047
932.3448, 73.08877
932.8269, 73.19889
933.3090, 73.75517
933.7911, 74.57158
934.2733, 74.81129
934.7554, 74.32453
935.2375, 73.52917
935.7196, 72.68974
936.2017, 71.80204
936.6838, 70.90701
937.1660, 70.01582
937.6481, 68.60747
938.1302, 66.26298
938.6123, 65.47263
939.0944, 67.70328
939.5765, 70.42722
940.0587, 70.95799
940.5408, 69.67043
941.0229, 69.29195
941.5050, 70.80383
941.9871, 71.42564
942.4692, 70.16201
942.9514, 69.03710
943.4335, 69.32629
943.9156, 69.93226
944.3977, 69.14148
944.8798, 66.90414
945.3619, 65.62532
945.8441, 66.24583
946.3262, 67.33630
946.8083, 68.74451
947.2904, 70.10788
947.7725, 71.46680
948.2546, 72.47073
948.7368, 72.32157
949.2189, 70.75953
949.7010, 68.97147
950.1831, 67.71559
950.6652, 66.60758
951.1473, 64.78189
951.6295, 63.01036
952.1116, 63.21621
952.5937, 65.14724
953.0758, 66.16098
953.5579, 64.62489
954.0400, 62.64490
954.5222, 63.91594
955.0043, 66.88187
955.4864, 65.93785
955.9685, 61.70530
956.4506, 60.39700
956.9327, 63.86008
957.4149, 68.19070
957.8970, 70.03732
958.3791, 69.91363
958.8612, 69.33891
959.3433, 68.31248
959.8254, 66.61439
960.3076, 63.83402
960.7897, 62.23707
961.2718, 63.07336
961.7539, 64.96358
962.2360, 66.21189
962.7181, 66.85423
963.2003, 67.68003
963.6824, 69.27540
964.1645, 69.82420
964.6466, 68.48685
965.1287, 66.90847
965.6108, 65.76691
966.0930, 65.01429
966.5751, 64.79258
967.0572, 65.21516
967.5393, 64.91138
968.0214, 61.81078
968.5035, 60.55377
968.9857, 64.38095
969.4678, 68.70492
969.9499, 70.04540
970.4320, 69.08630
970.9141, 67.68117
971.3962, 66.11378
971.8784, 65.48400
972.3605, 67.65514
972.8426, 69.47922
973.3247, 68.04914
973.8068, 65.44642
974.2889, 64.34067
974.7711, 64.80747
975.2532, 65.45638
975.7353, 65.65230
976.2174, 65.85078
976.6995, 66.78423
977.1816, 67.74694
977.6638, 67.41881
978.1459, 66.34472
978.6280, 66.06353
979.1101, 66.81308
979.5922, 67.67166
980.0743, 68.03927
980.5565, 67.94758
981.0386, 67.08106
981.5207, 65.81821
982.0028, 65.90654
982.4849, 67.19871
982.9670, 67.44584
983.4492, 65.88224
983.9313, 63.78789
984.4134, 62.22746
984.8955, 61.35806
985.3776, 62.02305
985.8597, 64.29875
986.3419, 65.58795
986.8240, 65.64769
987.3061, 64.82447
987.7882, 62.93583
988.2703, 61.20131
988.7524, 61.12732
989.2346, 62.59124
989.7167, 64.41537
990.1988, 67.11909
990.6809, 68.66612
991.1630, 69.05138
991.6451, 67.73933
992.1273, 62.62854
992.6094, 57.31313
993.0915, 58.05191
993.5736, 65.36110
994.0557, 68.95083
994.5378, 65.78241
995.0200, 63.30678
995.5021, 62.32501
995.9842, 62.08969
996.4663, 62.16274
996.9484, 62.73140
997.4305, 64.63707
997.9127, 68.17254
998.3948, 69.69985
998.8769, 66.92352
999.3590, 64.34310
999.8411, 63.47536
1000.323, 63.18512
1000.805, 62.45216
1001.287, 61.63224
1001.770, 61.80592
1002.252, 63.28099
1002.734, 64.26008
1003.216, 63.23576
1003.698, 62.38990
1004.180, 63.41629
1004.662, 64.98154
1005.144, 65.77660
1005.627, 65.74633
1006.109, 65.11533
1006.591, 63.92392
1007.073, 62.96154
1007.555, 62.84703
1008.037, 63.15001
1008.519, 63.71213
1009.001, 64.28016
1009.483, 64.31956
1009.966, 63.96113
1010.448, 63.91103
1010.930, 64.51073
1011.412, 65.27718
1011.894, 65.63205
1012.376, 65.90545
1012.858, 67.00581
1013.340, 68.37241
1013.823, 68.39570
1014.305, 67.00472
1014.787, 65.60349
1015.269, 65.03188
1015.751, 64.31966
1016.233, 61.13015
1016.715, 57.05443
1017.197, 57.23862
1017.679, 60.87141
1018.162, 64.07161
1018.644, 65.90074
1019.126, 66.23080
1019.608, 64.86378
1020.090, 62.79737
1020.572, 61.89983
1021.054, 61.93174
1021.536, 60.56133
1022.018, 57.89999
1022.501, 58.10771
1022.983, 62.38602
1023.465, 65.94046
1023.947, 65.11427
1024.429, 61.91235
1024.911, 60.60133
1025.393, 61.22768
1025.875, 61.58990
1026.358, 61.73676
1026.840, 60.87458
1027.322, 58.34607
1027.804, 57.01185
1028.286, 59.53157
1028.768, 64.01938
1029.250, 65.63918
1029.732, 64.00497
1030.214, 62.29282
1030.697, 60.20285
1031.179, 59.18923
1031.661, 59.99178
1032.143, 61.15072
1032.625, 61.61134
1033.107, 61.48621
1033.589, 60.97973
1034.071, 59.77194
1034.553, 59.74385
1035.036, 61.82296
1035.518, 62.97398
1036.000, 61.54857
1036.482, 60.27964
1036.964, 61.65363
1037.446, 64.70929
1037.928, 66.62279
1038.410, 67.22724
1038.893, 67.25602
1039.375, 65.82268
1039.857, 65.27106
1040.339, 67.85838
1040.821, 69.72197
1041.303, 66.85949
1041.785, 61.16174
1042.267, 58.15862
1042.750, 58.75926
1043.232, 59.00303
1043.714, 57.63577
1044.196, 57.56104
1044.678, 61.54340
1045.160, 65.07629
1045.642, 63.83172
1046.124, 59.81121
1046.606, 58.08784
1047.089, 59.60805
1047.571, 60.65361
1048.053, 60.60345
1048.535, 60.35732
1049.017, 60.39112
1049.499, 60.09979
1049.981, 58.44563
1050.463, 56.26532
1050.945, 55.54745
1051.428, 56.76757
1051.910, 57.76413
1052.392, 57.50178
1052.874, 57.80325
1053.356, 60.65871
1053.838, 62.98034
1054.320, 61.68922
1054.802, 58.29482
1055.285, 55.84808
1055.767, 54.80452
1056.249, 54.82186
1056.731, 56.92656
1057.213, 58.60503
1057.695, 59.19526
1058.177, 58.76947
1058.659, 56.15003
1059.141, 53.03819
1059.624, 52.88890
1060.106, 56.29439
1060.588, 58.96703
1061.070, 58.95242
1061.552, 58.75086
1062.034, 59.75738
1062.516, 60.55475
1062.998, 59.14605
1063.480, 57.11588
1063.963, 57.81596
1064.445, 61.55962
1064.927, 63.87862
1065.409, 62.54130
1065.891, 60.28395
1066.373, 56.59810
1066.855, 54.00304
1067.337, 55.85142
1067.820, 59.40907
1068.302, 59.94996
1068.784, 57.14312
1069.266, 55.11668
1069.748, 55.54209
1070.230, 56.81427
1070.712, 59.60614
1071.194, 61.58709
1071.677, 60.26080
1072.159, 57.42200
1072.641, 55.65469
1073.123, 55.19118
1073.605, 54.88640
1074.087, 54.33851
1074.569, 53.85567
1075.051, 53.79919
1075.533, 53.62813
1076.016, 52.38900
1076.498, 51.16165
1076.980, 51.50814
1077.462, 53.28960
1077.944, 55.28713
1078.426, 57.42539
1078.908, 58.54564
1079.390, 56.81347
1079.873, 55.34522
1080.355, 57.06459
1080.837, 59.57039
1081.319, 59.78218
1081.801, 58.12856
1082.283, 56.96790
1082.765, 57.04921
1083.247, 57.22112
1083.729, 56.38305
1084.212, 56.17365
1084.694, 58.57040
1085.176, 61.24720
1085.658, 61.71396
1086.140, 60.45984
1086.622, 58.97579
1087.104, 57.57892
1087.586, 56.91854
1088.068, 57.85934
1088.551, 58.84541
1089.033, 59.26863
1089.515, 59.25441
1089.997, 58.63660
1090.479, 57.78766
1090.961, 57.34717
1091.443, 57.42011
1091.925, 57.63850
1092.408, 57.81629
1092.890, 58.18159
1093.372, 59.44557
1093.854, 60.29623
1094.336, 59.42485
1094.818, 57.71502
1095.300, 56.32673
1095.782, 55.47316
1096.265, 55.27555
1096.747, 56.42573
1097.229, 56.94667
1097.711, 55.24400
1098.193, 53.78398
1098.675, 54.76646
1099.157, 56.25582
1099.639, 55.77418
1100.121, 53.58356
1100.604, 51.60955
1101.086, 49.92039
1101.568, 49.50349
1102.050, 51.80328
1102.532, 53.94484
1103.014, 54.93655
1103.496, 54.99904
1103.978, 53.80420
1104.460, 51.99523
1104.943, 51.20705
1105.425, 51.89508
1105.907, 52.23169
1106.389, 50.77555
1106.871, 50.45861
1107.353, 53.41206
1107.835, 56.49322
1108.317, 56.92953
1108.800, 56.27605
1109.282, 57.89141
1109.764, 62.16293
1110.246, 63.83174
1110.728, 60.99606
1111.210, 57.67164
1111.692, 52.31691
1112.174, 48.98281
1112.656, 51.28486
1113.139, 55.54319
1113.621, 57.43146
1114.103, 57.04634
1114.585, 56.14701
1115.067, 54.03017
1115.549, 52.70020
1116.031, 52.32531
1116.513, 52.53899
1116.995, 54.11095
1117.478, 55.27032
1117.960, 53.86341
1118.442, 50.95350
1118.924, 49.99495
1119.406, 51.52535
1119.888, 52.93580
1120.370, 54.52961
1120.852, 55.32820
1121.335, 54.78958
1121.817, 53.97322
1122.299, 53.42920
1122.781, 53.19041
1123.263, 53.34874
1123.745, 53.91063
1124.227, 54.62662
1124.709, 55.73510
1125.192, 56.04831
1125.674, 55.10316
1126.156, 54.32771
1126.638, 54.41035
1127.120, 54.88670
1127.602, 55.24155
1128.084, 55.48956
1128.566, 55.83994
1129.048, 56.42035
1129.531, 55.55286
1130.013, 52.77068
1130.495, 51.77581
1130.977, 54.04610
1131.459, 56.19883
1131.941, 55.34126
1132.423, 52.97298
1132.905, 52.53566
1133.387, 53.85005
1133.870, 53.61607
1134.352, 51.94474
1134.834, 52.53852
1135.316, 56.06055
1135.798, 58.57726
1136.280, 57.88993
1136.762, 56.13483
1137.244, 56.11648
1137.727, 57.13566
1138.209, 56.99531
1138.691, 55.99007
1139.173, 55.83041
1139.655, 56.28851
1140.137, 54.18933
1140.619, 48.78084
1141.101, 45.19672
1141.583, 48.16035
1142.066, 53.41247
1142.548, 54.11123
1143.030, 52.47277
1143.512, 53.20704
1143.994, 55.51656
1144.476, 56.67270
1144.958, 56.24259
1145.440, 54.97563
1145.922, 53.14015
1146.405, 52.25820
1146.887, 55.12336
1147.369, 58.38760
1147.851, 57.96424
1148.333, 55.60543
1148.815, 53.38435
1149.297, 51.79059
1149.779, 51.14642
1150.262, 51.50684
1150.744, 52.45138
1151.226, 54.30742
1151.708, 55.73409
1152.190, 55.73236
1152.672, 55.06622
1153.154, 53.81316
1153.636, 52.66505
1154.119, 52.71319
1154.601, 53.78967
1155.083, 54.65352
1155.565, 55.02700
1156.047, 54.94775
1156.529, 53.55158
1157.011, 52.83097
1157.493, 54.14177
1157.975, 56.03945
1158.458, 57.80706
1158.940, 59.05764
1159.422, 58.93683
1159.904, 57.24261
1160.386, 56.20509
1160.868, 56.95712
1161.350, 56.91314
1161.832, 55.59719
1162.314, 53.68196
1162.797, 50.54737
1163.279, 47.82764
1163.761, 47.56344
1164.243, 49.18608
1164.725, 49.87983
1165.207, 48.78326
1165.689, 50.19195
1166.171, 55.86277
1166.654, 58.49472
1167.136, 55.42639
1167.618, 51.62799
1168.100, 50.05579
1168.582, 50.49283
1169.064, 52.95185
1169.546, 57.06833
1170.028, 59.54945
1170.510, 60.38785
1170.993, 59.36902
1171.475, 56.42553
1171.957, 54.87426
1172.439, 55.99524
1172.921, 57.68618
1173.403, 58.17540
1173.885, 57.50987
1174.367, 54.87155
1174.849, 51.34172
1175.332, 51.15792
1175.814, 53.53162
1176.296, 55.14392
1176.778, 55.39736
1177.260, 55.03045
1177.742, 54.40224
1178.224, 53.42715
1178.706, 51.25043
1179.189, 49.55296
1179.671, 51.55802
1180.153, 54.72822
1180.635, 54.97811
1181.117, 53.30804
1181.599, 53.00970
1182.081, 54.34371
1182.563, 54.00631
1183.046, 49.34739
1183.528, 46.50951
1184.010, 51.86654
1184.492, 57.10817
1184.974, 54.88554
1185.456, 51.04462
1185.938, 52.61815
1186.420, 57.62923
1186.902, 60.26860
1187.385, 59.53284
1187.867, 57.82764
1188.349, 54.16891
1188.831, 51.76281
1189.313, 52.16154
1189.795, 52.77549
1190.277, 51.91509
1190.759, 51.06861
1191.241, 52.08330
1191.724, 54.34638
1192.206, 55.47113
1192.688, 55.36015
1193.170, 54.32373
1193.652, 51.54335
1194.134, 50.51411
1194.616, 52.33895
1195.098, 54.69526
1195.581, 56.43335
1196.063, 57.54888
1196.545, 57.97094
1197.027, 57.84093
1197.509, 58.08607
1197.991, 58.57574
1198.473, 56.41010
1198.955, 51.78366
1199.438, 49.95355
1199.920, 52.17456
1200.402, 54.56120
1200.884, 54.51130
1201.366, 53.59644
1201.848, 53.83750
1202.330, 54.70488
1202.812, 55.44464
1203.294, 55.91455
1203.776, 55.36749
1204.259, 54.35598
1204.741, 54.83962
1205.223, 57.10305
1205.705, 58.86096
1206.187, 58.87737
1206.669, 57.86848
1207.151, 55.26519
1207.633, 52.99413
1208.116, 52.86459
1208.598, 53.69873
1209.080, 54.22291
1209.562, 54.41790
1210.044, 54.64152
1210.526, 54.95256
1211.008, 55.32526
1211.490, 56.82065
1211.973, 56.76122
1212.455, 52.19808
1212.937, 49.07781
1213.419, 50.96585
1213.901, 54.42516
1214.383, 56.49048
1214.865, 57.18063
1215.347, 56.29277
1215.829, 53.33096
1216.312, 52.40528
1216.794, 54.03120
1217.276, 55.23991
1217.758, 55.59705
1218.240, 54.67028
1218.722, 51.97596
1219.204, 49.95478
1219.686, 51.70055
1220.168, 55.29636
1220.651, 55.56839
1221.133, 53.42335
1221.615, 52.23295
1222.097, 52.12341
1222.579, 53.14235
1223.061, 55.02888
1223.543, 56.59371
1224.025, 57.27264
1224.508, 57.51838
1224.990, 57.85845
1225.472, 57.79175
1225.954, 56.44090
1226.436, 54.72467
1226.918, 53.44948
1227.400, 52.72308
1227.882, 52.72058
1228.365, 53.30367
1228.847, 53.95705
1229.329, 54.72180
1229.811, 54.76055
1230.293, 52.53341
1230.775, 51.37063
1231.257, 53.67343
1231.739, 55.94394
1232.221, 55.59555
1232.703, 54.17947
1233.186, 53.57129
1233.668, 53.69930
1234.150, 54.19294
1234.632, 55.39202
1235.114, 55.31015
1235.596, 53.30194
1236.078, 53.44510
1236.560, 57.10221
1237.043, 59.99396
1237.525, 59.61369
1238.007, 57.41822
1238.489, 54.86208
1238.971, 52.62822
1239.453, 53.02731
1239.935, 55.24419
1240.417, 56.69454
1240.900, 57.34714
1241.382, 57.97793
1241.864, 58.59260
1242.346, 57.96364
1242.828, 55.41153
1243.310, 53.65247
1243.792, 56.03108
1244.274, 58.66857
1244.756, 58.32844
1245.239, 56.88531
1245.721, 56.05482
1246.203, 55.44751
1246.685, 53.89273
1247.167, 51.66343
1247.649, 50.71463
1248.131, 51.78939
1248.613, 52.75999
1249.095, 52.53841
1249.578, 53.58190
1250.060, 57.91615
1250.542, 60.92542
1251.024, 59.57250
1251.506, 56.96215
1251.988, 57.05808
1252.470, 58.77367
1252.952, 57.20282
1253.435, 52.17332
1253.917, 51.29029
1254.399, 54.53113
1254.881, 58.83583
1255.363, 63.36752
1255.845, 64.94605
1256.327, 62.17746
1256.809, 58.94018
1257.292, 59.05116
1257.774, 60.32643
1258.256, 59.91317
1258.738, 58.65395
1259.220, 57.21195
1259.702, 56.12239
1260.184, 56.69597
1260.666, 58.27235
1261.148, 58.27197
1261.630, 55.97763
1262.113, 54.64701
1262.595, 57.16912
1263.077, 58.26274
1263.559, 54.64640
1264.041, 51.47312
1264.523, 51.23824
1265.005, 52.63140
1265.487, 55.48452
1265.970, 58.44231
1266.452, 58.07223
1266.934, 54.30172
1267.416, 51.94452
1267.898, 50.93014
1268.380, 52.44035
1268.862, 56.78911
1269.344, 59.89367
1269.827, 60.44042
1270.309, 59.40601
1270.791, 57.38103
1271.273, 55.25826
1271.755, 53.98403
1272.237, 53.70817
1272.719, 55.57176
1273.201, 58.13403
1273.683, 58.56645
1274.166, 57.54317
1274.648, 57.49815
1275.130, 58.48267
1275.612, 57.66090
1276.094, 53.12565
1276.576, 50.50645
1277.058, 53.78313
1277.540, 56.97829
1278.022, 57.44709
1278.505, 57.46627
1278.987, 58.95065
1279.469, 60.46847
1279.951, 60.24851
1280.433, 58.65241
1280.915, 57.08479
1281.397, 55.49197
1281.879, 54.47453
1282.362, 54.05859
1282.844, 53.99938
1283.326, 54.26249
1283.808, 54.29601
1284.290, 53.87199
1284.772, 53.82037
1285.254, 54.76892
1285.736, 56.71603
##END=



