##NAMES=Faizievite
##RRUFFID=R070221
##IDEAL CHEMISTRY=Li_6_K_2_Na(Ca_6_Na)Ti^4+^_4_(Si_6_O_18_)_2_(Si_12_O_30_)F_2_
##LOCALITY=Dara-i-Pioz Glacier, Alayskiy (Alai) Range, Tien Shan Mts, Districts of the Republican Subordination, Tajikistan
##OWNER=RRUFF
##SOURCE=Michael Scott
##DESCRIPTION=Pale brownish yellow massive associated with quartz
##STATUS=The identification of this mineral is confirmed by single-crystal X-ray diffraction and chemical analysis.
##URL=rruff.info/R070221
##MEASURED CHEMISTRY=Li_6.00_(K_1.78_[box]_0.20_Ba_0.02_)_Σ=2_(Na_0.80_K_0.20_)_Σ=1_(Ca_6.12_Na_0.74_Sr_0.11_Mn_0.03_)_Σ=7_(Ti_3.88_Al_0.10_Nb^5+^_0.02_)_Σ=4_(Si_6.00_O_18_)_2_(Si_12.00_O_30_)(F_1.72_(OH)_0.28_)_Σ=2_; Li assumed by stoichiometry; OH by charge balance
173.2856, 6453.301
173.7677, 6497.144
174.2498, 6552.130
174.7319, 6598.303
175.2140, 6621.057
175.6961, 6628.131
176.1783, 6629.046
176.6604, 6621.469
177.1425, 6615.501
177.6246, 6623.332
178.1067, 6644.072
178.5888, 6672.608
179.0710, 6715.150
179.5531, 6762.425
180.0352, 6791.482
180.5173, 6789.981
180.9994, 6774.441
181.4815, 6769.433
181.9637, 6774.803
182.4458, 6786.995
182.9279, 6802.399
183.4100, 6821.981
183.8921, 6850.646
184.3742, 6897.541
184.8564, 6951.088
185.3385, 6979.952
185.8206, 6982.918
186.3027, 6978.930
186.7848, 6984.501
187.2669, 6999.304
187.7491, 7020.871
188.2312, 7050.995
188.7133, 7087.189
189.1954, 7123.230
189.6775, 7160.155
190.1596, 7191.124
190.6418, 7204.691
191.1239, 7201.198
191.6060, 7197.857
192.0881, 7200.050
192.5702, 7207.814
193.0524, 7221.555
193.5345, 7241.273
194.0166, 7266.786
194.4987, 7302.093
194.9808, 7348.370
195.4629, 7386.803
195.9451, 7403.390
196.4272, 7398.914
196.9093, 7404.000
197.3914, 7421.710
197.8735, 7445.684
198.3556, 7463.375
198.8378, 7473.636
199.3199, 7484.534
199.8020, 7499.978
200.2841, 7519.928
200.7662, 7544.699
201.2483, 7578.256
201.7305, 7613.037
202.2126, 7627.866
202.6947, 7618.418
203.1768, 7605.165
203.6589, 7598.528
204.1410, 7598.304
204.6232, 7607.208
205.1053, 7627.612
205.5874, 7656.381
206.0695, 7684.538
206.5516, 7713.665
207.0337, 7738.020
207.5159, 7751.264
207.9980, 7749.591
208.4801, 7753.847
208.9622, 7767.295
209.4443, 7788.590
209.9264, 7812.349
210.4086, 7840.799
210.8907, 7867.329
211.3728, 7884.073
211.8549, 7885.630
212.3370, 7897.214
212.8191, 7926.971
213.3013, 7971.447
213.7834, 8002.734
214.2655, 8016.282
214.7476, 8024.001
215.2297, 8036.401
215.7118, 8056.443
216.1940, 8072.927
216.6761, 8081.792
217.1582, 8083.704
217.6403, 8093.500
218.1224, 8114.013
218.6045, 8138.452
219.0867, 8160.896
219.5688, 8181.573
220.0509, 8199.424
220.5330, 8214.609
221.0151, 8227.421
221.4972, 8231.738
221.9794, 8220.056
222.4615, 8208.292
222.9436, 8214.140
223.4257, 8244.115
223.9078, 8279.370
224.3899, 8319.694
224.8721, 8367.534
225.3542, 8392.901
225.8363, 8381.741
226.3184, 8361.642
226.8005, 8367.416
227.2827, 8414.590
227.7648, 8458.111
228.2469, 8486.971
228.7290, 8499.840
229.2111, 8506.255
229.6932, 8497.880
230.1754, 8489.715
230.6575, 8505.141
231.1396, 8565.378
231.6217, 8610.964
232.1038, 8619.813
232.5859, 8581.185
233.0681, 8564.877
233.5502, 8581.789
234.0323, 8613.143
234.5144, 8629.305
234.9965, 8611.424
235.4786, 8610.741
235.9608, 8651.191
236.4429, 8748.719
236.9250, 8808.304
237.4071, 8808.191
237.8892, 8783.156
238.3713, 8791.371
238.8535, 8859.159
239.3356, 8915.937
239.8177, 8935.077
240.2998, 8902.688
240.7819, 8886.527
241.2640, 8892.259
241.7462, 8910.650
242.2283, 8925.108
242.7104, 8929.312
243.1925, 8940.183
243.6746, 8966.635
244.1567, 9018.307
244.6389, 9051.411
245.1210, 9055.724
245.6031, 9047.540
246.0852, 9057.464
246.5673, 9099.263
247.0494, 9135.586
247.5316, 9150.515
248.0137, 9133.900
248.4958, 9130.947
248.9779, 9147.415
249.4600, 9174.363
249.9421, 9195.033
250.4243, 9207.737
250.9064, 9217.294
251.3885, 9221.842
251.8706, 9212.887
252.3527, 9230.882
252.8348, 9291.864
253.3170, 9369.750
253.7991, 9411.595
254.2812, 9398.330
254.7633, 9384.889
255.2454, 9395.812
255.7275, 9444.009
256.2097, 9465.990
256.6918, 9449.046
257.1739, 9414.390
257.6560, 9401.223
258.1381, 9415.330
258.6202, 9439.241
259.1024, 9469.521
259.5845, 9509.933
260.0666, 9539.185
260.5487, 9553.564
261.0308, 9559.523
261.5129, 9568.596
261.9951, 9580.005
262.4772, 9596.260
262.9593, 9619.508
263.4414, 9652.148
263.9235, 9681.852
264.4056, 9710.333
264.8878, 9734.574
265.3699, 9749.209
265.8520, 9752.296
266.3341, 9751.567
266.8162, 9747.329
267.2983, 9737.266
267.7805, 9740.062
268.2626, 9759.843
268.7447, 9787.925
269.2268, 9811.020
269.7089, 9829.926
270.1910, 9840.776
270.6732, 9837.164
271.1553, 9815.926
271.6374, 9813.268
272.1195, 9833.396
272.6016, 9865.978
273.0837, 9895.624
273.5659, 9923.011
274.0480, 9944.622
274.5301, 9954.009
275.0122, 9950.106
275.4943, 9968.536
275.9764, 10016.49
276.4586, 10073.25
276.9407, 10105.46
277.4228, 10109.84
277.9049, 10114.98
278.3870, 10132.51
278.8691, 10161.82
279.3513, 10190.69
279.8334, 10220.47
280.3155, 10246.38
280.7976, 10258.67
281.2798, 10256.50
281.7619, 10257.86
282.2440, 10268.65
282.7261, 10288.56
283.2082, 10319.78
283.6903, 10366.44
284.1725, 10409.20
284.6546, 10418.65
285.1367, 10396.01
285.6188, 10375.32
286.1009, 10364.87
286.5830, 10365.73
287.0652, 10386.50
287.5473, 10429.31
288.0294, 10478.12
288.5115, 10519.32
288.9936, 10552.60
289.4757, 10573.26
289.9579, 10571.33
290.4400, 10557.88
290.9221, 10567.32
291.4042, 10601.25
291.8863, 10638.07
292.3684, 10654.86
292.8506, 10655.35
293.3327, 10655.61
293.8148, 10657.19
294.2969, 10663.63
294.7790, 10684.63
295.2611, 10720.35
295.7433, 10759.15
296.2254, 10794.38
296.7075, 10825.59
297.1896, 10849.93
297.6717, 10864.21
298.1538, 10874.00
298.6360, 10888.75
299.1181, 10907.96
299.6002, 10924.15
300.0823, 10929.55
300.5644, 10928.22
301.0465, 10927.28
301.5287, 10925.76
302.0108, 10928.89
302.4929, 10947.03
302.9750, 10977.62
303.4571, 11004.96
303.9392, 11009.41
304.4214, 11007.11
304.9035, 11023.05
305.3856, 11075.39
305.8677, 11127.09
306.3498, 11137.02
306.8319, 11115.91
307.3141, 11101.85
307.7962, 11120.54
308.2783, 11155.70
308.7604, 11194.75
309.2425, 11240.95
309.7246, 11276.18
310.2068, 11277.67
310.6889, 11257.76
311.1710, 11248.53
311.6531, 11269.13
312.1352, 11304.08
312.6173, 11347.66
313.0995, 11408.36
313.5816, 11448.54
314.0637, 11430.58
314.5458, 11381.10
315.0279, 11350.12
315.5100, 11374.00
315.9922, 11408.48
316.4743, 11427.83
316.9564, 11423.65
317.4385, 11427.04
317.9206, 11454.88
318.4027, 11494.92
318.8849, 11530.09
319.3670, 11557.82
319.8491, 11578.11
320.3312, 11586.58
320.8133, 11579.34
321.2954, 11582.85
321.7776, 11608.78
322.2597, 11645.43
322.7418, 11680.31
323.2239, 11710.30
323.7060, 11739.70
324.1881, 11771.36
324.6703, 11806.09
325.1524, 11833.49
325.6345, 11847.43
326.1166, 11856.31
326.5987, 11866.91
327.0808, 11873.80
327.5630, 11889.04
328.0451, 11921.74
328.5272, 11970.28
329.0093, 11997.96
329.4914, 11984.83
329.9735, 11968.35
330.4557, 11975.30
330.9378, 12034.48
331.4199, 12065.10
331.9020, 12044.48
332.3841, 11987.83
332.8662, 11971.89
333.3484, 12015.13
333.8305, 12071.28
334.3126, 12117.05
334.7947, 12150.85
335.2768, 12176.90
335.7589, 12191.81
336.2411, 12200.99
336.7232, 12219.90
337.2053, 12252.08
337.6874, 12283.28
338.1695, 12303.74
338.6516, 12310.48
339.1338, 12334.85
339.6159, 12385.27
340.0980, 12440.55
340.5801, 12456.42
341.0622, 12427.73
341.5443, 12409.15
342.0265, 12427.94
342.5086, 12479.62
342.9907, 12526.79
343.4728, 12570.48
343.9549, 12604.00
344.4370, 12612.07
344.9192, 12597.49
345.4013, 12587.06
345.8834, 12590.79
346.3655, 12605.30
346.8476, 12623.67
347.3297, 12645.97
347.8119, 12667.69
348.2940, 12680.05
348.7761, 12687.71
349.2582, 12704.80
349.7403, 12739.65
350.2225, 12781.71
350.7046, 12816.72
351.1867, 12845.51
351.6688, 12872.25
352.1509, 12902.16
352.6331, 12931.45
353.1152, 12952.88
353.5973, 12959.99
354.0794, 12968.04
354.5615, 12993.48
355.0436, 13031.67
355.5258, 13068.51
356.0079, 13102.21
356.4900, 13127.87
356.9721, 13137.43
357.4542, 13123.54
357.9363, 13114.42
358.4185, 13126.59
358.9006, 13154.18
359.3827, 13187.06
359.8648, 13228.57
360.3469, 13268.57
360.8290, 13302.02
361.3112, 13328.38
361.7933, 13349.78
362.2754, 13361.82
362.7575, 13371.38
363.2396, 13386.00
363.7217, 13418.76
364.2039, 13445.15
364.6860, 13456.58
365.1681, 13452.79
365.6502, 13449.13
366.1323, 13438.80
366.6144, 13434.25
367.0966, 13444.29
367.5787, 13485.70
368.0608, 13521.27
368.5429, 13546.38
369.0250, 13563.18
369.5071, 13581.30
369.9893, 13594.13
370.4714, 13615.72
370.9535, 13656.68
371.4356, 13736.89
371.9177, 13788.68
372.3998, 13800.12
372.8820, 13788.38
373.3641, 13791.08
373.8462, 13811.72
374.3283, 13837.71
374.8104, 13865.35
375.2925, 13895.33
375.7747, 13921.58
376.2568, 13944.09
376.7389, 13963.36
377.2210, 13978.39
377.7031, 13988.74
378.1852, 14001.03
378.6674, 14016.79
379.1495, 14036.13
379.6316, 14064.16
380.1137, 14102.15
380.5958, 14135.02
381.0779, 14139.30
381.5601, 14122.66
382.0422, 14124.58
382.5243, 14162.07
383.0064, 14211.89
383.4885, 14232.70
383.9706, 14228.07
384.4528, 14223.04
384.9349, 14232.80
385.4170, 14253.78
385.8991, 14283.79
386.3812, 14327.41
386.8633, 14364.79
387.3455, 14371.45
387.8276, 14357.49
388.3097, 14346.02
388.7918, 14344.28
389.2739, 14352.65
389.7560, 14373.64
390.2382, 14408.18
390.7203, 14445.98
391.2024, 14492.43
391.6845, 14535.24
392.1666, 14560.71
392.6487, 14537.36
393.1309, 14520.73
393.6130, 14540.80
394.0951, 14593.98
394.5772, 14634.80
395.0593, 14633.63
395.5414, 14627.91
396.0236, 14641.14
396.5057, 14704.08
396.9878, 14753.52
397.4699, 14782.14
397.9520, 14792.66
398.4341, 14793.23
398.9163, 14769.13
399.3984, 14750.36
399.8805, 14749.39
400.3626, 14774.49
400.8447, 14791.35
401.3268, 14789.19
401.8090, 14786.77
402.2911, 14813.89
402.7732, 14882.43
403.2553, 14949.46
403.7374, 15007.76
404.2195, 15056.60
404.7017, 15076.54
405.1838, 15057.88
405.6659, 15036.60
406.1480, 15047.57
406.6301, 15091.23
407.1122, 15138.93
407.5944, 15191.83
408.0765, 15239.46
408.5586, 15245.91
409.0407, 15212.11
409.5228, 15185.17
410.0049, 15198.02
410.4871, 15241.88
410.9692, 15299.62
411.4513, 15375.68
411.9334, 15441.21
412.4155, 15451.21
412.8976, 15422.57
413.3798, 15403.90
413.8619, 15426.03
414.3440, 15464.00
414.8261, 15490.47
415.3082, 15505.02
415.7903, 15524.37
416.2725, 15571.16
416.7546, 15624.60
417.2367, 15661.48
417.7188, 15654.98
418.2009, 15651.04
418.6830, 15675.46
419.1652, 15721.09
419.6473, 15760.84
420.1294, 15778.19
420.6115, 15793.06
421.0937, 15817.19
421.5758, 15856.79
422.0579, 15894.58
422.5400, 15930.74
423.0221, 15963.33
423.5042, 15989.87
423.9864, 16005.26
424.4685, 16019.97
424.9506, 16036.55
425.4327, 16054.99
425.9148, 16071.83
426.3969, 16081.80
426.8791, 16096.12
427.3612, 16127.49
427.8433, 16185.03
428.3254, 16230.01
428.8075, 16253.44
429.2896, 16261.88
429.7718, 16274.83
430.2539, 16291.25
430.7360, 16317.19
431.2181, 16369.60
431.7002, 16444.25
432.1823, 16472.29
432.6645, 16442.32
433.1466, 16392.27
433.6287, 16366.48
434.1108, 16363.94
434.5929, 16381.26
435.0750, 16427.48
435.5572, 16488.22
436.0393, 16545.25
436.5214, 16597.92
437.0035, 16632.12
437.4856, 16612.87
437.9677, 16575.05
438.4499, 16570.07
438.9320, 16626.85
439.4141, 16692.42
439.8962, 16739.04
440.3783, 16765.82
440.8604, 16771.88
441.3426, 16719.25
441.8247, 16674.06
442.3068, 16681.84
442.7889, 16760.65
443.2710, 16828.83
443.7531, 16854.12
444.2353, 16861.66
444.7174, 16879.67
445.1995, 16937.35
445.6816, 16977.68
446.1637, 16978.24
446.6458, 16944.66
447.1280, 16938.13
447.6101, 16969.70
448.0922, 17016.35
448.5743, 17070.21
449.0564, 17147.65
449.5385, 17185.85
450.0207, 17167.21
450.5028, 17123.23
450.9849, 17113.91
451.4670, 17144.24
451.9491, 17184.30
452.4312, 17224.06
452.9134, 17263.95
453.3955, 17312.13
453.8776, 17370.33
454.3597, 17423.47
454.8418, 17449.45
455.3239, 17455.51
455.8061, 17473.09
456.2882, 17517.81
456.7703, 17564.23
457.2524, 17567.16
457.7345, 17536.85
458.2166, 17515.19
458.6988, 17539.45
459.1809, 17579.36
459.6630, 17595.96
460.1451, 17580.58
460.6272, 17578.48
461.1093, 17634.65
461.5915, 17715.74
462.0736, 17779.25
462.5557, 17808.98
463.0378, 17820.96
463.5199, 17803.03
464.0020, 17762.95
464.4842, 17755.86
464.9663, 17829.08
465.4484, 17911.89
465.9305, 17966.12
466.4126, 17965.69
466.8947, 17981.60
467.3769, 18025.93
467.8590, 18081.19
468.3411, 18118.01
468.8232, 18125.22
469.3053, 18136.04
469.7874, 18161.54
470.2696, 18200.53
470.7517, 18230.32
471.2338, 18249.27
471.7159, 18263.87
472.1980, 18277.10
472.6801, 18289.21
473.1623, 18309.21
473.6444, 18342.44
474.1265, 18376.43
474.6086, 18380.04
475.0907, 18359.50
475.5728, 18354.99
476.0550, 18411.35
476.5371, 18489.24
477.0192, 18514.67
477.5013, 18484.62
477.9834, 18458.44
478.4655, 18491.17
478.9477, 18552.54
479.4298, 18602.02
479.9119, 18617.74
480.3940, 18632.01
480.8761, 18669.64
481.3582, 18720.14
481.8404, 18752.78
482.3225, 18728.54
482.8046, 18708.05
483.2867, 18724.95
483.7688, 18799.09
484.2509, 18851.45
484.7331, 18858.25
485.2152, 18849.02
485.6973, 18851.11
486.1794, 18870.51
486.6615, 18890.81
487.1436, 18907.85
487.6258, 18924.01
488.1079, 18953.72
488.5900, 19003.31
489.0721, 19048.40
489.5542, 19071.50
490.0363, 19072.48
490.5185, 19084.02
491.0006, 19108.38
491.4827, 19138.21
491.9648, 19163.10
492.4470, 19184.38
492.9291, 19209.99
493.4112, 19248.08
493.8933, 19286.64
494.3754, 19297.21
494.8575, 19285.47
495.3397, 19286.38
495.8218, 19348.61
496.3039, 19423.33
496.7860, 19449.58
497.2681, 19405.11
497.7502, 19366.75
498.2324, 19371.04
498.7145, 19407.04
499.1966, 19459.97
499.6787, 19543.20
500.1608, 19624.63
500.6429, 19705.96
501.1251, 19784.46
501.6072, 19822.01
502.0893, 19762.44
502.5714, 19709.40
503.0535, 19716.52
503.5356, 19825.44
504.0178, 19892.55
504.4999, 19900.39
504.9820, 19881.63
505.4641, 19885.54
505.9462, 19915.44
506.4283, 19951.51
506.9105, 19993.05
507.3926, 20035.12
507.8747, 20050.19
508.3568, 20036.46
508.8389, 20030.61
509.3210, 20068.94
509.8032, 20136.27
510.2853, 20194.34
510.7674, 20240.45
511.2495, 20268.30
511.7316, 20258.39
512.2137, 20226.05
512.6959, 20202.63
513.1780, 20190.18
513.6601, 20199.92
514.1422, 20253.54
514.6243, 20343.55
515.1064, 20419.36
515.5886, 20465.56
516.0707, 20488.46
516.5528, 20486.01
517.0349, 20429.54
517.5170, 20407.29
517.9991, 20449.04
518.4813, 20521.29
518.9634, 20583.87
519.4455, 20638.50
519.9276, 20680.21
520.4097, 20706.34
520.8918, 20718.04
521.3740, 20724.85
521.8561, 20726.23
522.3382, 20724.54
522.8203, 20718.58
523.3024, 20709.04
523.7845, 20703.46
524.2667, 20699.11
524.7488, 20711.16
525.2309, 20776.26
525.7130, 20877.42
526.1951, 20952.68
526.6772, 20961.80
527.1594, 20953.59
527.6415, 20995.85
528.1236, 21075.10
528.6057, 21132.99
529.0878, 21112.45
529.5699, 21072.80
530.0521, 21056.53
530.5342, 21070.41
531.0163, 21101.05
531.4984, 21152.89
531.9805, 21215.83
532.4626, 21279.27
532.9448, 21362.53
533.4269, 21420.36
533.9090, 21431.91
534.3911, 21412.62
534.8732, 21424.54
535.3553, 21485.30
535.8375, 21544.85
536.3196, 21581.05
536.8017, 21593.51
537.2838, 21596.10
537.7659, 21583.10
538.2480, 21579.33
538.7302, 21628.10
539.2123, 21718.77
539.6944, 21769.61
540.1765, 21748.59
540.6586, 21706.53
541.1407, 21715.26
541.6229, 21764.54
542.1050, 21817.35
542.5871, 21867.24
543.0692, 21903.03
543.5513, 21898.48
544.0334, 21853.14
544.5156, 21836.13
544.9977, 21916.25
545.4798, 22017.10
545.9619, 22076.11
546.4440, 22040.79
546.9261, 22023.99
547.4083, 22046.42
547.8904, 22096.21
548.3725, 22153.60
548.8546, 22236.75
549.3367, 22296.90
549.8188, 22310.47
550.3010, 22284.16
550.7831, 22302.10
551.2652, 22375.77
551.7473, 22455.62
552.2294, 22501.75
552.7115, 22518.47
553.1937, 22549.70
553.6758, 22602.09
554.1579, 22655.89
554.6400, 22680.38
555.1221, 22685.88
555.6042, 22702.46
556.0864, 22756.79
556.5685, 22810.99
557.0506, 22816.93
557.5327, 22788.26
558.0148, 22775.64
558.4969, 22812.25
558.9791, 22866.27
559.4612, 22921.86
559.9433, 22979.22
560.4254, 23026.93
560.9075, 23061.06
561.3896, 23085.29
561.8718, 23102.46
562.3539, 23098.09
562.8360, 23113.42
563.3181, 23164.53
563.8002, 23230.75
564.2823, 23257.35
564.7645, 23234.14
565.2466, 23216.06
565.7287, 23225.50
566.2108, 23257.86
566.6929, 23295.29
567.1750, 23337.97
567.6572, 23374.44
568.1393, 23381.12
568.6214, 23376.43
569.1035, 23400.79
569.5856, 23466.40
570.0677, 23538.02
570.5499, 23591.67
571.0320, 23631.58
571.5141, 23664.88
571.9962, 23692.44
572.4783, 23715.62
572.9604, 23732.71
573.4426, 23744.86
573.9247, 23758.21
574.4068, 23784.01
574.8889, 23801.29
575.3710, 23797.52
575.8531, 23764.93
576.3353, 23753.64
576.8174, 23771.57
577.2995, 23799.17
577.7816, 23814.75
578.2637, 23815.63
578.7458, 23835.40
579.2280, 23883.81
579.7101, 23944.18
580.1922, 23983.61
580.6743, 24006.37
581.1564, 24036.47
581.6385, 24100.50
582.1207, 24169.96
582.6028, 24196.89
583.0849, 24187.23
583.5670, 24189.12
584.0491, 24240.94
584.5313, 24309.26
585.0134, 24369.61
585.4955, 24417.95
585.9776, 24458.84
586.4597, 24498.91
586.9418, 24529.35
587.4240, 24538.16
587.9061, 24495.00
588.3882, 24478.81
588.8703, 24509.95
589.3524, 24570.22
589.8345, 24602.61
590.3167, 24598.29
590.7988, 24600.71
591.2809, 24636.78
591.7630, 24696.26
592.2451, 24712.70
592.7272, 24683.78
593.2094, 24668.61
593.6915, 24744.47
594.1736, 24863.36
594.6557, 24929.40
595.1378, 24917.53
595.6199, 24888.23
596.1021, 24859.36
596.5842, 24848.61
597.0663, 24881.40
597.5485, 25035.82
598.0306, 25161.07
598.5127, 25190.42
598.9948, 25145.53
599.4769, 25123.14
599.9590, 25142.97
600.4412, 25169.04
600.9233, 25187.27
601.4054, 25196.02
601.8875, 25226.48
602.3696, 25284.68
602.8517, 25349.37
603.3339, 25402.98
603.8160, 25446.32
604.2981, 25483.29
604.7802, 25513.82
605.2623, 25538.66
605.7444, 25548.11
606.2266, 25551.71
606.7087, 25575.41
607.1908, 25652.25
607.6729, 25728.78
608.1550, 25758.25
608.6371, 25751.66
609.1193, 25745.84
609.6014, 25744.65
610.0835, 25757.04
610.5656, 25793.86
611.0477, 25860.80
611.5298, 25910.35
612.0120, 25927.50
612.4941, 25939.96
612.9762, 25966.20
613.4583, 26010.40
613.9404, 26054.58
614.4225, 26101.41
614.9047, 26141.62
615.3868, 26154.21
615.8689, 26142.29
616.3510, 26146.36
616.8331, 26182.76
617.3152, 26235.11
617.7974, 26282.34
618.2795, 26324.58
618.7616, 26364.72
619.2437, 26405.91
619.7258, 26444.21
620.2079, 26476.32
620.6901, 26501.94
621.1722, 26526.17
621.6543, 26552.39
622.1364, 26576.77
622.6185, 26595.61
623.1006, 26602.54
623.5828, 26618.31
624.0649, 26646.34
624.5470, 26680.06
625.0291, 26710.84
625.5112, 26737.05
625.9933, 26772.08
626.4755, 26825.54
626.9576, 26878.83
627.4397, 26878.31
627.9218, 26832.58
628.4039, 26807.31
628.8860, 26847.13
629.3682, 26919.76
629.8503, 26991.08
630.3324, 27059.22
630.8145, 27110.25
631.2966, 27113.10
631.7787, 27111.30
632.2609, 27139.35
632.7430, 27211.43
633.2251, 27274.69
633.7072, 27309.09
634.1893, 27336.01
634.6714, 27374.63
635.1536, 27436.85
635.6357, 27484.92
636.1178, 27515.54
636.5999, 27530.89
637.0820, 27523.69
637.5641, 27492.03
638.0463, 27490.93
638.5284, 27558.22
639.0105, 27649.56
639.4926, 27657.64
639.9747, 27599.20
640.4568, 27570.52
640.9390, 27672.50
641.4211, 27803.34
641.9032, 27858.19
642.3853, 27829.64
642.8674, 27815.48
643.3495, 27866.07
643.8317, 27937.04
644.3138, 27998.98
644.7959, 28046.31
645.2780, 28087.65
645.7601, 28118.14
646.2422, 28146.78
646.7244, 28187.23
647.2065, 28243.40
647.6886, 28289.90
648.1707, 28322.80
648.6528, 28342.42
649.1349, 28340.03
649.6171, 28320.08
650.0992, 28313.95
650.5813, 28339.71
651.0634, 28385.10
651.5455, 28447.58
652.0276, 28521.73
652.5098, 28575.42
652.9919, 28576.05
653.4740, 28563.02
653.9561, 28556.77
654.4382, 28557.92
654.9203, 28575.43
655.4025, 28627.35
655.8846, 28682.12
656.3667, 28718.42
656.8488, 28731.89
657.3309, 28739.17
657.8130, 28739.04
658.2952, 28736.24
658.7773, 28731.50
659.2594, 28726.46
659.7415, 28742.19
660.2236, 28787.83
660.7057, 28850.84
661.1879, 28932.13
661.6700, 29017.85
662.1521, 29068.16
662.6342, 29024.99
663.1163, 28973.71
663.5984, 28968.12
664.0806, 29004.84
664.5627, 29044.58
665.0448, 29087.39
665.5269, 29121.54
666.0090, 29135.89
666.4911, 29123.54
666.9733, 29144.59
667.4554, 29210.18
667.9375, 29287.13
668.4196, 29354.41
668.9017, 29411.76
669.3839, 29443.76
669.8660, 29446.28
670.3481, 29436.25
670.8302, 29423.34
671.3123, 29413.44
671.7944, 29420.43
672.2766, 29455.82
672.7587, 29497.36
673.2408, 29539.27
673.7229, 29575.97
674.2050, 29597.42
674.6871, 29561.99
675.1693, 29553.44
675.6514, 29618.69
676.1335, 29736.76
676.6156, 29791.41
677.0977, 29752.72
677.5798, 29718.97
678.0620, 29739.94
678.5441, 29808.13
679.0262, 29845.80
679.5083, 29851.66
679.9904, 29853.28
680.4725, 29873.10
680.9547, 29903.62
681.4368, 29932.01
681.9189, 29956.24
682.4010, 29981.22
682.8831, 30014.67
683.3652, 30048.13
683.8474, 30071.58
684.3295, 30066.37
684.8116, 30077.29
685.2937, 30122.06
685.7758, 30181.52
686.2579, 30231.26
686.7401, 30268.97
687.2222, 30304.05
687.7043, 30341.49
688.1864, 30373.64
688.6685, 30368.35
689.1506, 30329.39
689.6328, 30317.96
690.1149, 30384.24
690.5970, 30479.23
691.0791, 30529.97
691.5612, 30542.70
692.0433, 30548.27
692.5255, 30547.62
693.0076, 30558.09
693.4897, 30597.17
693.9718, 30669.26
694.4539, 30728.70
694.9360, 30764.14
695.4182, 30790.06
695.9003, 30812.76
696.3824, 30830.06
696.8645, 30853.85
697.3466, 30887.37
697.8287, 30918.82
698.3109, 30930.13
698.7930, 30926.27
699.2751, 30936.91
699.7572, 30971.37
700.2393, 31005.41
700.7214, 31012.56
701.2036, 31002.10
701.6857, 30988.64
702.1678, 30938.60
702.6499, 30931.73
703.1320, 31044.42
703.6141, 31221.31
704.0963, 31321.26
704.5784, 31291.40
705.0605, 31256.25
705.5426, 31237.09
706.0247, 31233.19
706.5068, 31242.49
706.9890, 31265.63
707.4711, 31296.96
707.9532, 31341.46
708.4353, 31390.23
708.9174, 31413.16
709.3995, 31413.16
709.8817, 31417.85
710.3638, 31443.93
710.8459, 31484.55
711.3280, 31540.37
711.8101, 31615.38
712.2922, 31671.53
712.7744, 31680.04
713.2565, 31679.65
713.7386, 31697.88
714.2207, 31746.54
714.7028, 31782.61
715.1849, 31802.70
715.6671, 31816.65
716.1492, 31834.32
716.6313, 31855.67
717.1134, 31883.71
717.5955, 31920.90
718.0776, 31957.76
718.5598, 31984.32
719.0419, 32001.43
719.5240, 32009.69
720.0061, 31984.90
720.4882, 31981.26
720.9703, 32045.98
721.4525, 32148.59
721.9346, 32219.74
722.4167, 32216.79
722.8988, 32227.55
723.3809, 32278.76
723.8630, 32354.78
724.3452, 32386.82
724.8273, 32368.40
725.3094, 32351.95
725.7915, 32361.63
726.2736, 32390.99
726.7557, 32429.43
727.2379, 32475.17
727.7200, 32514.19
728.2021, 32525.60
728.6842, 32534.74
729.1663, 32565.29
729.6484, 32619.69
730.1306, 32672.44
730.6127, 32730.71
731.0948, 32772.52
731.5769, 32781.84
732.0590, 32744.84
732.5411, 32734.83
733.0233, 32757.44
733.5054, 32794.41
733.9875, 32832.84
734.4696, 32872.08
734.9517, 32903.06
735.4338, 32922.76
735.9160, 32947.53
736.3981, 33010.09
736.8802, 33083.40
737.3623, 33124.80
737.8444, 33104.62
738.3266, 33086.88
738.8087, 33094.93
739.2908, 33120.41
739.7729, 33151.15
740.2551, 33184.70
740.7372, 33228.70
741.2193, 33295.29
741.7014, 33363.37
742.1835, 33381.47
742.6656, 33348.93
743.1478, 33317.27
743.6299, 33299.14
744.1120, 33295.52
744.5941, 33303.77
745.0762, 33327.18
745.5583, 33376.25
746.0405, 33496.64
746.5226, 33606.09
747.0047, 33648.61
747.4868, 33635.03
747.9689, 33631.01
748.4510, 33641.31
748.9332, 33666.40
749.4153, 33711.91
749.8974, 33775.08
750.3795, 33826.00
750.8616, 33863.98
751.3438, 33893.95
751.8259, 33912.22
752.3080, 33925.98
752.7901, 33960.82
753.2722, 34015.25
753.7543, 34054.42
754.2365, 34036.16
754.7186, 34006.12
755.2007, 34002.17
755.6828, 34033.04
756.1649, 34063.25
756.6470, 34081.70
757.1292, 34102.86
757.6113, 34135.58
758.0934, 34181.57
758.5755, 34235.70
759.0576, 34303.83
759.5397, 34362.11
760.0219, 34374.99
760.5040, 34357.42
760.9861, 34356.24
761.4682, 34379.73
761.9503, 34414.28
762.4324, 34458.61
762.9146, 34504.08
763.3967, 34539.58
763.8788, 34545.59
764.3609, 34569.02
764.8430, 34634.75
765.3251, 34711.66
765.8073, 34764.07
766.2894, 34784.82
766.7715, 34810.66
767.2536, 34850.91
767.7357, 34889.67
768.2178, 34886.42
768.7000, 34854.79
769.1821, 34855.63
769.6642, 34933.58
770.1463, 35010.29
770.6284, 34997.66
771.1105, 34937.82
771.5927, 34912.20
772.0748, 34981.08
772.5569, 35046.18
773.0390, 35077.80
773.5211, 35090.67
774.0032, 35124.78
774.4854, 35188.80
774.9675, 35240.34
775.4496, 35261.41
775.9317, 35266.55
776.4138, 35299.30
776.8959, 35352.63
777.3781, 35389.94
777.8602, 35361.56
778.3423, 35333.50
778.8244, 35372.57
779.3065, 35463.58
779.7886, 35539.90
780.2708, 35575.86
780.7529, 35598.83
781.2350, 35614.93
781.7171, 35625.54
782.1992, 35645.17
782.6813, 35676.05
783.1635, 35706.51
783.6456, 35734.64
784.1277, 35757.02
784.6098, 35751.74
785.0919, 35723.21
785.5740, 35714.39
786.0562, 35780.26
786.5383, 35857.88
787.0204, 35884.87
787.5025, 35858.34
787.9846, 35854.10
788.4667, 35908.67
788.9489, 35972.45
789.4310, 36032.33
789.9131, 36089.54
790.3952, 36099.49
790.8773, 36048.98
791.3594, 36012.57
791.8416, 36067.78
792.3237, 36177.33
792.8058, 36238.90
793.2879, 36248.54
793.7700, 36249.67
794.2521, 36261.16
794.7343, 36284.73
795.2164, 36327.94
795.6985, 36401.41
796.1806, 36448.95
796.6627, 36443.39
797.1448, 36435.32
797.6270, 36460.93
798.1091, 36526.80
798.5912, 36573.07
799.0733, 36598.64
799.5554, 36610.43
800.0375, 36602.04
800.5197, 36588.04
801.0018, 36595.43
801.4839, 36627.98
801.9660, 36681.59
802.4481, 36792.18
802.9302, 36898.96
803.4124, 36946.42
803.8945, 36888.57
804.3766, 36855.01
804.8587, 36848.42
805.3408, 36862.66
805.8229, 36895.10
806.3051, 36945.64
806.7872, 37007.55
807.2693, 37084.16
807.7514, 37149.01
808.2335, 37159.71
808.7156, 37146.89
809.1978, 37159.30
809.6799, 37214.65
810.1620, 37269.81
810.6441, 37306.63
811.1262, 37335.00
811.6083, 37363.88
812.0905, 37392.25
812.5726, 37424.87
813.0547, 37462.12
813.5368, 37502.41
814.0189, 37549.75
814.5010, 37600.48
814.9832, 37630.30
815.4653, 37632.05
815.9474, 37627.63
816.4295, 37639.88
816.9116, 37656.82
817.3937, 37659.73
817.8759, 37617.88
818.3580, 37614.02
818.8401, 37702.03
819.3222, 37811.07
819.8043, 37873.32
820.2864, 37876.80
820.7686, 37889.96
821.2507, 37921.24
821.7328, 37955.46
822.2149, 37968.04
822.6970, 37967.98
823.1791, 37980.33
823.6613, 38015.00
824.1434, 38047.82
824.6255, 38052.24
825.1076, 38050.58
825.5897, 38067.55
826.0718, 38126.70
826.5540, 38177.76
827.0361, 38218.62
827.5182, 38254.39
828.0003, 38291.55
828.4824, 38329.77
828.9645, 38367.24
829.4467, 38403.29
829.9288, 38439.36
830.4109, 38493.77
830.8930, 38543.89
831.3751, 38546.61
831.8572, 38453.39
832.3394, 38398.11
832.8215, 38447.54
833.3036, 38548.51
833.7857, 38646.09
834.2678, 38756.45
834.7499, 38803.43
835.2321, 38760.95
835.7142, 38703.29
836.1963, 38739.77
836.6784, 38842.36
837.1605, 38901.36
837.6426, 38886.27
838.1248, 38867.79
838.6069, 38912.38
839.0890, 38978.00
839.5711, 39015.13
840.0532, 38975.99
840.5353, 38981.32
841.0175, 39074.17
841.4996, 39175.84
841.9817, 39195.04
842.4638, 39127.56
842.9459, 39087.86
843.4280, 39087.21
843.9102, 39112.32
844.3923, 39157.17
844.8744, 39215.38
845.3565, 39279.05
845.8386, 39351.64
846.3207, 39411.92
846.8029, 39456.81
847.2850, 39481.36
847.7671, 39478.17
848.2492, 39425.20
848.7313, 39407.46
849.2134, 39432.90
849.6956, 39473.64
850.1777, 39503.02
850.6598, 39524.68
851.1419, 39553.68
851.6240, 39593.04
852.1061, 39627.74
852.5883, 39633.12
853.0704, 39637.01
853.5525, 39666.11
854.0346, 39730.95
854.5167, 39802.56
854.9988, 39891.13
855.4810, 39970.23
855.9631, 40019.30
856.4452, 40038.02
856.9273, 40053.33
857.4094, 40065.45
857.8915, 40079.80
858.3737, 40100.59
858.8558, 40126.49
859.3379, 40157.31
859.8200, 40193.18
860.3021, 40227.52
860.7842, 40256.06
861.2664, 40283.25
861.7485, 40312.55
862.2306, 40345.34
862.7127, 40364.72
863.1948, 40366.23
863.6769, 40374.67
864.1591, 40406.78
864.6412, 40459.30
865.1233, 40540.94
865.6054, 40647.79
866.0875, 40721.63
866.5696, 40697.06
867.0518, 40655.05
867.5339, 40650.04
868.0160, 40687.83
868.4981, 40705.15
868.9802, 40687.96
869.4623, 40679.92
869.9445, 40707.63
870.4266, 40760.91
870.9087, 40791.24
871.3908, 40800.67
871.8729, 40807.23
872.3550, 40812.06
872.8372, 40826.87
873.3193, 40870.96
873.8014, 40937.86
874.2835, 40988.64
874.7656, 40988.96
875.2477, 41003.32
875.7299, 41051.71
876.2120, 41125.41
876.6941, 41198.71
877.1762, 41271.38
877.6583, 41322.61
878.1404, 41337.62
878.6226, 41331.47
879.1047, 41302.31
879.5869, 41267.91
880.0690, 41273.10
880.5511, 41378.13
881.0332, 41475.63
881.5153, 41542.24
881.9974, 41578.66
882.4796, 41570.77
882.9617, 41501.39
883.4438, 41493.16
883.9259, 41594.59
884.4080, 41729.84
884.8901, 41773.96
885.3723, 41757.71
885.8544, 41753.04
886.3365, 41790.81
886.8186, 41834.77
887.3007, 41872.04
887.7828, 41904.58
888.2650, 41937.38
888.7471, 41980.00
889.2292, 41991.57
889.7113, 41957.00
890.1934, 41917.20
890.6755, 41924.80
891.1577, 41970.91
891.6398, 42031.29
892.1219, 42103.62
892.6040, 42175.88
893.0861, 42248.06
893.5682, 42310.38
894.0504, 42351.59
894.5325, 42359.77
895.0146, 42369.70
895.4967, 42373.80
895.9788, 42393.42
896.4609, 42469.24
896.9431, 42584.03
897.4252, 42606.94
897.9073, 42529.84
898.3894, 42471.11
898.8715, 42558.68
899.3536, 42675.47
899.8358, 42711.20
900.3179, 42646.41
900.8000, 42619.57
901.2821, 42655.81
901.7642, 42714.98
902.2463, 42788.07
902.7285, 42870.02
903.2106, 42932.83
903.6927, 42976.25
904.1748, 43002.38
904.6569, 43002.46
905.1390, 42993.73
905.6212, 42990.50
906.1033, 42993.21
906.5854, 43001.66
907.0675, 43008.25
907.5496, 43032.47
908.0317, 43093.70
908.5139, 43169.54
908.9960, 43179.38
909.4781, 43122.77
909.9602, 43089.03
910.4423, 43119.88
910.9244, 43171.69
911.4066, 43179.36
911.8887, 43171.94
912.3708, 43203.35
912.8529, 43354.85
913.3350, 43465.05
913.8171, 43488.05
914.2993, 43469.06
914.7814, 43458.93
915.2635, 43456.29
915.7456, 43487.05
916.2277, 43561.73
916.7098, 43640.88
917.1920, 43676.45
917.6741, 43687.20
918.1562, 43699.11
918.6383, 43716.77
919.1204, 43737.93
919.6025, 43773.05
920.0847, 43801.98
920.5668, 43802.71
921.0489, 43764.23
921.5310, 43788.14
922.0131, 43881.61
922.4952, 43976.23
922.9774, 44009.59
923.4595, 44012.17
923.9416, 44023.82
924.4237, 44047.50
924.9058, 44084.56
925.3879, 44143.22
925.8701, 44208.99
926.3522, 44287.89
926.8343, 44372.92
927.3164, 44393.69
927.7985, 44341.75
928.2806, 44305.21
928.7628, 44335.22
929.2449, 44394.01
929.7270, 44431.69
930.2091, 44449.52
930.6912, 44451.93
931.1733, 44416.09
931.6555, 44393.53
932.1376, 44397.40
932.6197, 44425.15
933.1018, 44482.13
933.5839, 44575.64
934.0660, 44646.95
934.5482, 44685.67
935.0303, 44700.23
935.5124, 44681.56
935.9945, 44652.54
936.4766, 44656.40
936.9587, 44716.41
937.4409, 44772.59
937.9230, 44803.71
938.4051, 44825.46
938.8872, 44847.06
939.3693, 44866.07
939.8514, 44906.67
940.3336, 44972.50
940.8157, 45030.60
941.2978, 45040.76
941.7799, 45032.64
942.2620, 45052.08
942.7441, 45100.28
943.2263, 45146.70
943.7084, 45174.66
944.1905, 45202.86
944.6726, 45240.96
945.1547, 45286.08
945.6368, 45320.14
946.1190, 45343.11
946.6011, 45359.91
947.0832, 45372.18
947.5653, 45380.20
948.0474, 45381.51
948.5295, 45379.16
949.0117, 45380.28
949.4938, 45369.03
949.9759, 45386.38
950.4580, 45447.70
950.9401, 45533.91
951.4222, 45626.22
951.9044, 45725.82
952.3865, 45780.36
952.8686, 45774.61
953.3507, 45755.61
953.8328, 45777.32
954.3149, 45813.84
954.7971, 45826.81
955.2792, 45794.43
955.7613, 45795.61
956.2434, 45863.90
956.7255, 45941.73
957.2076, 45992.43
957.6898, 46017.34
958.1719, 46062.55
958.6540, 46128.04
959.1361, 46188.56
959.6182, 46238.57
960.1003, 46267.14
960.5825, 46242.75
961.0646, 46179.70
961.5467, 46164.19
962.0288, 46256.84
962.5109, 46327.55
962.9930, 46334.86
963.4752, 46309.98
963.9573, 46330.83
964.4394, 46391.43
964.9215, 46460.54
965.4036, 46544.63
965.8857, 46599.74
966.3679, 46541.52
966.8500, 46453.82
967.3321, 46450.32
967.8142, 46627.85
968.2963, 46739.90
968.7784, 46771.54
969.2606, 46764.02
969.7427, 46737.47
970.2248, 46705.51
970.7069, 46731.77
971.1890, 46820.00
971.6711, 46892.20
972.1533, 46883.18
972.6354, 46851.86
973.1175, 46821.77
973.5996, 46796.95
974.0817, 46842.64
974.5638, 46985.57
975.0460, 47102.61
975.5281, 47131.13
976.0102, 47113.25
976.4923, 47136.43
976.9744, 47189.61
977.4565, 47240.28
977.9387, 47287.73
978.4208, 47314.50
978.9029, 47287.20
979.3850, 47248.80
979.8671, 47263.86
980.3492, 47345.49
980.8314, 47399.55
981.3135, 47410.93
981.7956, 47416.29
982.2777, 47468.60
982.7598, 47535.18
983.2419, 47560.57
983.7241, 47529.22
984.2062, 47521.12
984.6883, 47582.70
985.1704, 47650.37
985.6525, 47694.51
986.1346, 47718.55
986.6168, 47768.99
987.0989, 47844.22
987.5810, 47893.09
988.0631, 47847.59
988.5452, 47794.72
989.0273, 47828.57
989.5095, 47920.03
989.9916, 47994.02
990.4737, 48024.54
990.9558, 48054.07
991.4379, 48085.15
991.9200, 48119.98
992.4022, 48171.15
992.8843, 48230.44
993.3664, 48256.64
993.8485, 48235.31
994.3306, 48222.95
994.8127, 48283.40
995.2949, 48353.12
995.7770, 48367.34
996.2591, 48311.32
996.7412, 48295.94
997.2233, 48331.98
997.7054, 48369.60
998.1876, 48367.37
998.6697, 48349.98
999.1518, 48387.85
999.6339, 48463.74
1000.116, 48509.52
1000.598, 48452.13
1001.080, 48409.00
1001.562, 48424.31
1002.044, 48477.27
1002.527, 48538.42
1003.009, 48608.55
1003.491, 48671.99
1003.973, 48728.00
1004.455, 48763.20
1004.937, 48737.79
1005.419, 48693.93
1005.901, 48691.00
1006.384, 48754.94
1006.866, 48789.61
1007.348, 48752.64
1007.830, 48732.64
1008.312, 48791.11
1008.794, 48910.88
1009.276, 49000.40
1009.758, 49059.07
1010.240, 49086.44
1010.723, 49045.65
1011.205, 49009.55
1011.687, 49048.80
1012.169, 49125.56
1012.651, 49130.07
1013.133, 49016.59
1013.615, 48962.52
1014.097, 49001.81
1014.580, 49088.38
1015.062, 49181.63
1015.544, 49268.42
1016.026, 49317.07
1016.508, 49313.80
1016.990, 49318.04
1017.472, 49365.64
1017.954, 49416.57
1018.436, 49447.69
1018.919, 49459.76
1019.401, 49474.73
1019.883, 49492.61
1020.365, 49504.55
1020.847, 49498.77
1021.329, 49490.16
1021.811, 49482.78
1022.293, 49484.97
1022.776, 49518.09
1023.258, 49609.60
1023.740, 49696.22
1024.222, 49779.09
1024.704, 49843.03
1025.186, 49867.00
1025.668, 49854.13
1026.150, 49790.58
1026.632, 49666.06
1027.115, 49606.80
1027.597, 49777.71
1028.079, 49964.86
1028.561, 50003.45
1029.043, 49901.43
1029.525, 49880.86
1030.007, 49951.65
1030.489, 50025.19
1030.972, 50063.88
1031.454, 50079.41
1031.936, 50067.80
1032.418, 50048.83
1032.900, 50064.72
1033.382, 50175.13
1033.864, 50255.50
1034.346, 50285.33
1034.828, 50292.70
1035.311, 50320.76
1035.793, 50358.91
1036.275, 50306.26
1036.757, 50153.66
1037.239, 50054.52
1037.721, 50170.86
1038.203, 50333.34
1038.685, 50433.82
1039.167, 50469.64
1039.650, 50469.19
1040.132, 50416.66
1040.614, 50400.55
1041.096, 50464.28
1041.578, 50556.56
1042.060, 50595.12
1042.542, 50601.27
1043.024, 50612.20
1043.507, 50617.25
1043.989, 50676.40
1044.471, 50874.75
1044.953, 51044.73
1045.435, 51021.96
1045.917, 50827.60
1046.399, 50741.87
1046.881, 50767.77
1047.364, 50844.63
1047.846, 51009.02
1048.328, 51138.68
1048.810, 51111.11
1049.292, 50969.10
1049.774, 50911.57
1050.256, 50955.98
1050.738, 51034.64
1051.220, 51145.41
1051.703, 51254.34
1052.185, 51312.84
1052.667, 51332.82
1053.149, 51325.22
1053.631, 51281.23
1054.113, 51263.05
1054.595, 51302.78
1055.077, 51355.22
1055.559, 51404.49
1056.042, 51447.77
1056.524, 51460.91
1057.006, 51447.78
1057.488, 51440.02
1057.970, 51448.12
1058.452, 51474.04
1058.934, 51539.26
1059.416, 51617.24
1059.899, 51654.05
1060.381, 51631.04
1060.863, 51635.21
1061.345, 51679.39
1061.827, 51726.76
1062.309, 51728.20
1062.791, 51714.37
1063.273, 51736.18
1063.755, 51797.07
1064.238, 51848.08
1064.720, 51878.64
1065.202, 51890.79
1065.684, 51868.92
1066.166, 51840.13
1066.648, 51903.53
1067.130, 52034.87
1067.612, 52121.02
1068.094, 52101.86
1068.577, 52087.58
1069.059, 52182.40
1069.541, 52287.84
1070.023, 52295.40
1070.505, 52171.23
1070.987, 52162.76
1071.469, 52283.30
1071.951, 52388.05
1072.434, 52341.86
1072.916, 52250.99
1073.398, 52242.08
1073.880, 52297.37
1074.362, 52347.32
1074.844, 52376.18
1075.326, 52400.80
1075.808, 52421.17
1076.291, 52442.16
1076.773, 52471.08
1077.255, 52506.36
1077.737, 52539.63
1078.219, 52568.49
1078.701, 52612.58
1079.183, 52710.17
1079.665, 52795.82
1080.147, 52840.09
1080.630, 52845.92
1081.112, 52813.57
1081.594, 52745.78
1082.076, 52730.84
1082.558, 52825.28
1083.040, 52940.19
1083.522, 52996.66
1084.004, 53025.05
1084.486, 53070.17
1084.969, 53167.70
1085.451, 53184.73
1085.933, 53098.32
1086.415, 53017.36
1086.897, 53031.50
1087.379, 53103.53
1087.861, 53183.57
1088.343, 53265.43
1088.826, 53330.40
1089.308, 53383.25
1089.790, 53394.82
1090.272, 53334.27
1090.754, 53263.27
1091.236, 53304.68
1091.718, 53426.04
1092.200, 53461.78
1092.682, 53380.12
1093.165, 53316.45
1093.647, 53344.12
1094.129, 53429.93
1094.611, 53581.68
1095.093, 53779.32
1095.575, 53882.82
1096.057, 53889.36
1096.539, 53869.58
1097.022, 53845.12
1097.504, 53814.48
1097.986, 53755.91
1098.468, 53698.95
1098.950, 53690.65
1099.432, 53773.55
1099.914, 53795.17
1100.396, 53725.85
1100.879, 53690.07
1101.361, 53834.14
1101.843, 54047.72
1102.325, 54097.91
1102.807, 54023.41
1103.289, 53975.59
1103.771, 54039.61
1104.253, 54098.30
1104.735, 54137.13
1105.218, 54155.13
1105.700, 54131.12
1106.182, 54081.34
1106.664, 54096.57
1107.146, 54187.98
1107.628, 54270.25
1108.110, 54269.95
1108.592, 54267.93
1109.074, 54319.04
1109.557, 54405.66
1110.039, 54447.94
1110.521, 54445.46
1111.003, 54465.28
1111.485, 54541.59
1111.967, 54600.99
1112.449, 54535.39
1112.931, 54436.37
1113.414, 54407.50
1113.896, 54472.82
1114.378, 54543.44
1114.860, 54625.42
1115.342, 54685.84
1115.824, 54699.83
1116.306, 54686.34
1116.788, 54653.92
1117.271, 54620.25
1117.753, 54624.58
1118.235, 54739.90
1118.717, 54798.16
1119.199, 54765.17
1119.681, 54719.66
1120.163, 54746.04
1120.645, 54821.60
1121.127, 54884.59
1121.609, 54932.16
1122.092, 54966.66
1122.574, 54966.43
1123.056, 54981.71
1123.538, 55038.38
1124.020, 55111.96
1124.502, 55148.51
1124.984, 55153.61
1125.466, 55179.12
1125.949, 55237.00
1126.431, 55288.32
1126.913, 55312.21
1127.395, 55313.24
1127.877, 55277.73
1128.359, 55216.01
1128.841, 55213.55
1129.323, 55273.21
1129.806, 55344.70
1130.288, 55411.59
1130.770, 55478.58
1131.252, 55572.73
1131.734, 55659.12
1132.216, 55686.07
1132.698, 55632.63
1133.180, 55570.80
1133.662, 55489.93
1134.145, 55447.77
1134.627, 55504.07
1135.109, 55606.31
1135.591, 55687.33
1136.073, 55745.86
1136.555, 55776.46
1137.037, 55733.40
1137.519, 55734.85
1138.001, 55806.04
1138.484, 55883.73
1138.966, 55889.51
1139.448, 55853.79
1139.930, 55846.38
1140.412, 55870.39
1140.894, 55912.33
1141.376, 55982.18
1141.858, 56051.18
1142.341, 56116.46
1142.823, 56172.51
1143.305, 56203.37
1143.787, 56215.77
1144.269, 56249.26
1144.751, 56314.87
1145.233, 56350.93
1145.715, 56278.86
1146.198, 56212.71
1146.680, 56228.00
1147.162, 56299.39
1147.644, 56280.84
1148.126, 56184.11
1148.608, 56177.97
1149.090, 56353.27
1149.572, 56532.68
1150.054, 56591.86
1150.536, 56583.65
1151.019, 56548.42
1151.501, 56484.27
1151.983, 56460.79
1152.465, 56478.74
1152.947, 56513.50
1153.429, 56563.38
1153.911, 56610.99
1154.393, 56620.02
1154.876, 56620.93
1155.358, 56678.74
1155.840, 56850.56
1156.322, 56892.14
1156.804, 56772.98
1157.286, 56666.75
1157.768, 56742.73
1158.250, 56891.53
1158.733, 56993.18
1159.215, 57047.84
1159.697, 57073.97
1160.179, 57073.12
1160.661, 57044.44
1161.143, 56975.70
1161.625, 56913.36
1162.107, 56919.66
1162.589, 56964.32
1163.072, 56993.91
1163.554, 57006.10
1164.036, 57038.59
1164.518, 57114.94
1165.000, 57189.62
1165.482, 57258.27
1165.964, 57309.93
1166.446, 57309.22
1166.928, 57279.00
1167.411, 57274.69
1167.893, 57311.77
1168.375, 57335.16
1168.857, 57307.93
1169.339, 57289.69
1169.821, 57315.15
1170.303, 57356.65
1170.785, 57303.84
1171.268, 57195.73
1171.750, 57166.66
1172.232, 57292.62
1172.714, 57414.38
1173.196, 57466.78
1173.678, 57495.48
1174.160, 57521.32
1174.642, 57545.41
1175.125, 57573.31
1175.607, 57604.68
1176.089, 57636.20
1176.571, 57670.01
1177.053, 57699.31
1177.535, 57729.95
1178.017, 57747.27
1178.499, 57727.65
1178.981, 57671.77
1179.464, 57650.85
1179.946, 57665.72
1180.428, 57712.82
1180.910, 57830.46
1181.392, 57935.18
1181.874, 57972.48
1182.356, 57974.37
1182.838, 57997.50
1183.320, 58044.41
1183.803, 58018.60
1184.285, 57909.44
1184.767, 57836.87
1185.249, 57922.82
1185.731, 58045.13
1186.213, 58133.33
1186.695, 58188.26
1187.177, 58216.66
1187.660, 58216.83
1188.142, 58210.89
1188.624, 58199.16
1189.106, 58208.58
1189.588, 58287.56
1190.070, 58377.12
1190.552, 58435.16
1191.034, 58459.29
1191.516, 58442.68
1191.999, 58376.88
1192.481, 58355.99
1192.963, 58411.75
1193.445, 58487.53
1193.927, 58538.74
1194.409, 58573.22
1194.891, 58582.30
1195.373, 58565.38
1195.855, 58648.49
1196.338, 58852.63
1196.820, 58972.17
1197.302, 58896.71
1197.784, 58765.77
1198.266, 58702.47
1198.748, 58689.68
1199.230, 58716.82
1199.712, 58791.80
1200.195, 58835.61
1200.677, 58845.32
1201.159, 58842.28
1201.641, 58816.85
1202.123, 58810.38
1202.605, 58903.46
1203.087, 59036.13
1203.569, 59111.04
1204.052, 59111.31
1204.534, 59060.70
1205.016, 58941.84
1205.498, 58873.98
1205.980, 59001.70
1206.462, 59173.87
1206.944, 59197.17
1207.426, 59132.76
1207.908, 59125.14
1208.391, 59212.82
1208.873, 59287.71
1209.355, 59348.95
1209.837, 59381.38
1210.319, 59329.44
1210.801, 59274.43
1211.283, 59343.40
1211.765, 59492.41
1212.247, 59551.02
1212.730, 59473.63
1213.212, 59415.34
1213.694, 59390.47
1214.176, 59394.43
1214.658, 59438.95
1215.140, 59497.76
1215.622, 59547.43
1216.104, 59584.68
1216.587, 59595.16
1217.069, 59558.36
1217.551, 59576.63
1218.033, 59681.73
1218.515, 59779.51
1218.997, 59730.96
1219.479, 59640.41
1219.961, 59629.66
1220.443, 59704.03
1220.926, 59770.02
1221.408, 59823.13
1221.890, 59869.33
1222.372, 59912.98
1222.854, 59939.40
1223.336, 59911.17
1223.818, 59868.41
1224.300, 59854.07
1224.782, 59875.51
1225.265, 59924.93
1225.747, 60012.93
1226.229, 60074.33
1226.711, 60081.79
1227.193, 60075.09
1227.675, 60117.56
1228.157, 60164.52
1228.639, 60142.59
1229.122, 60032.48
1229.604, 60040.26
1230.086, 60189.34
1230.568, 60296.76
1231.050, 60275.83
1231.532, 60217.52
1232.014, 60215.95
1232.496, 60244.18
1232.979, 60269.43
1233.461, 60287.58
1233.943, 60314.66
1234.425, 60351.48
1234.907, 60387.32
1235.389, 60419.47
1235.871, 60444.69
1236.353, 60464.32
1236.835, 60473.44
1237.318, 60457.39
1237.800, 60407.36
1238.282, 60411.35
1238.764, 60472.07
1239.246, 60530.26
1239.728, 60542.50
1240.210, 60551.10
1240.692, 60581.54
1241.175, 60635.90
1241.657, 60729.20
1242.139, 60884.03
1242.621, 60910.97
1243.103, 60809.07
1243.585, 60702.67
1244.067, 60646.53
1244.549, 60633.66
1245.031, 60693.83
1245.514, 60775.39
1245.996, 60797.22
1246.478, 60749.77
1246.960, 60772.32
1247.442, 60864.15
1247.924, 60966.43
1248.406, 61073.20
1248.888, 61143.08
1249.370, 61127.27
1249.853, 61075.53
1250.335, 61045.57
1250.817, 61037.76
1251.299, 61067.44
1251.781, 61132.31
1252.263, 61190.48
1252.745, 61226.30
1253.227, 61236.29
1253.710, 61183.27
1254.192, 61132.45
1254.674, 61188.13
1255.156, 61329.36
1255.638, 61402.39
1256.120, 61401.98
1256.602, 61384.20
1257.084, 61337.98
1257.567, 61338.86
1258.049, 61442.99
1258.531, 61560.92
1259.013, 61549.31
1259.495, 61445.91
1259.977, 61386.93
1260.459, 61380.31
1260.941, 61384.30
1261.423, 61362.96
1261.906, 61380.09
1262.388, 61466.76
1262.870, 61567.92
1263.352, 61593.52
1263.834, 61574.95
1264.316, 61578.33
1264.798, 61609.98
1265.280, 61665.42
1265.762, 61783.60
1266.245, 61858.71
1266.727, 61868.68
1267.209, 61837.30
1267.691, 61758.39
1268.173, 61679.18
1268.655, 61692.56
1269.137, 61800.12
1269.619, 61883.51
1270.102, 61918.18
1270.584, 61964.19
1271.066, 62042.79
1271.548, 62104.98
1272.030, 62051.21
1272.512, 61969.75
1272.994, 61978.11
1273.476, 62078.42
1273.958, 62131.85
1274.441, 62121.10
1274.923, 62132.48
1275.405, 62190.46
1275.887, 62248.91
1276.369, 62262.96
1276.851, 62251.76
1277.333, 62220.14
1277.815, 62176.88
1278.297, 62166.13
1278.780, 62188.88
1279.262, 62228.48
1279.744, 62284.43
1280.226, 62334.18
1280.708, 62340.23
1281.190, 62352.04
1281.672, 62417.87
1282.154, 62516.66
1282.637, 62578.71
1283.119, 62603.49
1283.601, 62565.22
1284.083, 62442.09
1284.565, 62378.17
1285.047, 62535.12
1285.529, 62692.00
1286.011, 62742.58
1286.494, 62714.49
1286.976, 62658.74
1287.458, 62590.41
1287.940, 62563.98
1288.422, 62593.85
1288.904, 62638.38
1289.386, 62714.18
1289.868, 62754.47
1290.350, 62722.74
1290.833, 62663.00
1291.315, 62661.18
1291.797, 62698.04
1292.279, 62740.34
1292.761, 62784.15
1293.243, 62811.77
1293.725, 62811.26
1294.207, 62826.34
1294.689, 62879.65
1295.172, 62935.84
1295.654, 62941.14
1296.136, 62918.80
1296.618, 62895.47
1297.100, 62874.46
1297.582, 62867.28
1298.064, 62876.21
1298.546, 62881.29
##END=



