##NAMES=Heulandite-Ca
##RRUFFID=R050647
##IDEAL CHEMISTRY=(Ca,Na,K)_5_(Si_27_Al_9_)O_72_&#183;26H_2_O
##LOCALITY=Rat's Nest Claim, Custer County, Idaho, USA
##OWNER=RRUFF
##SOURCE=John Cornish
##DESCRIPTION=Pink anhedral grains
##STATUS=The identification of this mineral is confirmed by single-crystal X-ray diffraction and chemical analysis.
##URL=rruff.info/R050647
##MEASURED CHEMISTRY=(Ca_0.69_Na_0.25_K_0.06_)_5_(Si_0.80_Al_0.20_)_36_O_72_Â·24H_2_O
224.3801, 6985.703
226.3086, 7012.510
228.2370, 7015.415
230.1655, 6999.999
232.0940, 7006.840
234.0224, 7041.813
235.9509, 7067.276
237.8794, 7064.817
239.8078, 7067.343
241.7363, 7091.589
243.6648, 7113.523
245.5932, 7102.636
247.5217, 7077.793
249.4502, 7082.063
251.3786, 7119.529
253.3071, 7152.541
255.2356, 7177.120
257.1640, 7189.940
259.0925, 7186.611
261.0210, 7183.364
262.9494, 7191.643
264.8779, 7202.412
266.8064, 7202.580
268.7348, 7191.894
270.6633, 7194.825
272.5918, 7217.602
274.5202, 7231.914
276.4487, 7236.979
278.3772, 7241.502
280.3056, 7244.078
282.2341, 7243.441
284.1626, 7241.021
286.0910, 7241.510
288.0195, 7256.819
289.9480, 7285.149
291.8764, 7311.265
293.8049, 7341.875
295.7334, 7359.017
297.6618, 7338.802
299.5903, 7311.046
301.5188, 7300.533
303.4472, 7308.216
305.3757, 7326.070
307.3042, 7348.322
309.2326, 7356.178
311.1611, 7348.612
313.0896, 7340.134
315.0180, 7327.107
316.9465, 7319.540
318.8750, 7325.940
320.8034, 7338.442
322.7319, 7348.232
324.6604, 7356.304
326.5888, 7358.646
328.5173, 7353.158
330.4458, 7357.179
332.3742, 7383.673
334.3027, 7398.851
336.2312, 7386.014
338.1596, 7369.728
340.0881, 7365.549
342.0166, 7370.080
343.9450, 7376.284
345.8735, 7385.022
347.8020, 7388.693
349.7304, 7372.821
351.6589, 7374.326
353.5874, 7420.617
355.5158, 7451.519
357.4443, 7439.977
359.3728, 7426.080
361.3012, 7435.227
363.2297, 7455.582
365.1582, 7475.153
367.0866, 7497.255
369.0151, 7531.251
370.9436, 7580.302
372.8720, 7618.240
374.8005, 7640.699
376.7290, 7654.626
378.6574, 7656.466
380.5859, 7672.883
382.5144, 7717.053
384.4428, 7766.247
386.3713, 7809.464
388.2998, 7857.745
390.2282, 7911.521
392.1567, 7963.060
394.0852, 7998.870
396.0136, 8017.471
397.9421, 8038.731
399.8706, 8070.831
401.7990, 8096.000
403.7275, 8112.975
405.6560, 8114.604
407.5844, 8093.893
409.5129, 8058.974
411.4414, 8012.810
413.3698, 7957.176
415.2983, 7910.616
417.2268, 7877.356
419.1552, 7819.326
421.0837, 7710.796
423.0122, 7614.179
424.9406, 7545.730
426.8691, 7489.200
428.7976, 7436.873
430.7260, 7389.818
432.6545, 7349.934
434.5830, 7320.958
436.5114, 7299.666
438.4399, 7280.190
440.3684, 7262.959
442.2968, 7252.452
444.2253, 7230.622
446.1538, 7184.312
448.0822, 7158.094
450.0107, 7177.268
451.9392, 7195.544
453.8676, 7175.846
455.7961, 7155.964
457.7246, 7169.900
459.6530, 7202.334
461.5815, 7228.895
463.5100, 7253.423
465.4384, 7279.122
467.3669, 7306.946
469.2954, 7320.195
471.2238, 7306.185
473.1523, 7308.732
475.0808, 7361.345
477.0092, 7407.214
478.9377, 7415.486
480.8662, 7401.316
482.7946, 7378.910
484.7231, 7351.381
486.6516, 7323.934
488.5800, 7296.218
490.5085, 7267.229
492.4370, 7237.500
494.3654, 7198.688
496.2939, 7147.404
498.2224, 7095.335
500.1508, 7043.724
502.0793, 6994.655
504.0078, 6946.788
505.9362, 6904.167
507.8647, 6871.695
509.7932, 6845.102
511.7216, 6820.411
513.6501, 6796.577
515.5786, 6768.012
517.5070, 6735.274
519.4355, 6707.872
521.3640, 6685.529
523.2924, 6674.643
525.2209, 6695.815
527.1494, 6695.832
529.0778, 6645.522
531.0063, 6605.194
532.9348, 6610.014
534.8632, 6620.914
536.7917, 6606.968
538.7202, 6585.734
540.6486, 6573.972
542.5771, 6567.144
544.5056, 6558.912
546.4340, 6551.688
548.3625, 6548.128
550.2910, 6547.378
552.2194, 6542.979
554.1479, 6534.095
556.0764, 6530.218
558.0048, 6536.573
559.9333, 6536.147
561.8618, 6525.232
563.7902, 6504.231
565.7187, 6456.522
567.6472, 6415.350
569.5756, 6416.492
571.5041, 6436.854
573.4326, 6443.470
575.3610, 6442.225
577.2895, 6439.954
579.2180, 6434.084
581.1464, 6423.332
583.0749, 6407.868
585.0034, 6397.035
586.9318, 6390.379
588.8603, 6384.356
590.7888, 6379.191
592.7172, 6383.406
594.6457, 6400.286
596.5742, 6414.674
598.5026, 6419.057
600.4311, 6414.462
602.3596, 6413.335
604.2880, 6426.864
606.2165, 6440.633
608.1450, 6431.035
610.0734, 6423.781
612.0019, 6434.194
613.9304, 6422.695
615.8588, 6377.386
617.7873, 6350.464
619.7158, 6359.299
621.6442, 6358.801
623.5727, 6332.874
625.5012, 6313.218
627.4296, 6316.455
629.3581, 6304.606
631.2866, 6253.258
633.2150, 6209.402
635.1435, 6196.849
637.0720, 6196.430
639.0004, 6206.863
640.9289, 6220.588
642.8574, 6213.535
644.7858, 6191.248
646.7143, 6169.629
648.6428, 6148.099
650.5712, 6129.385
652.4997, 6115.693
654.4282, 6097.412
656.3566, 6067.799
658.2851, 6064.534
660.2136, 6102.631
662.1420, 6116.950
664.0705, 6080.988
665.9990, 6055.401
667.9274, 6065.060
669.8559, 6072.903
671.7844, 6067.335
673.7128, 6040.174
675.6413, 5987.484
677.5698, 5956.587
679.4982, 5972.243
681.4267, 5996.193
683.3552, 5999.308
685.2836, 5991.614
687.2121, 5975.807
689.1406, 5951.590
691.0690, 5933.649
692.9975, 5925.569
694.9260, 5926.394
696.8544, 5934.014
698.7829, 5928.129
700.7114, 5906.179
702.6398, 5905.060
704.5683, 5933.490
706.4968, 5940.971
708.4252, 5918.214
710.3537, 5901.317
712.2822, 5887.863
714.2106, 5890.233
716.1391, 5900.441
718.0676, 5885.606
719.9960, 5864.674
721.9245, 5861.863
723.8530, 5867.845
725.7814, 5856.789
727.7099, 5828.038
729.6384, 5815.846
731.5668, 5820.789
733.4953, 5809.546
735.4238, 5783.208
737.3522, 5765.925
739.2807, 5760.283
741.2092, 5745.015
743.1376, 5711.304
745.0661, 5690.222
746.9946, 5715.330
748.9230, 5755.563
750.8515, 5750.373
752.7800, 5707.390
754.7084, 5681.897
756.6369, 5689.338
758.5654, 5705.396
760.4938, 5712.814
762.4223, 5708.428
764.3508, 5691.181
766.2792, 5663.025
768.2077, 5645.978
770.1362, 5656.579
772.0646, 5672.520
773.9931, 5671.000
775.9216, 5663.228
777.8500, 5663.819
779.7785, 5666.354
781.7070, 5654.937
783.6354, 5622.896
785.5639, 5603.607
787.4924, 5619.865
789.4208, 5627.321
791.3493, 5622.162
793.2778, 5625.838
795.2062, 5611.865
797.1347, 5593.000
799.0632, 5589.462
800.9916, 5579.854
802.9201, 5565.124
804.8486, 5554.440
806.7770, 5547.952
808.7055, 5545.189
810.6340, 5529.028
812.5624, 5514.235
814.4909, 5532.659
816.4194, 5549.808
818.3478, 5526.445
820.2763, 5502.058
822.2048, 5510.958
824.1332, 5507.115
826.0617, 5462.770
827.9902, 5434.077
829.9186, 5442.634
831.8471, 5448.939
833.7756, 5448.904
835.7040, 5440.402
837.6325, 5408.924
839.5610, 5389.605
841.4894, 5395.636
843.4179, 5400.138
845.3464, 5400.616
847.2748, 5395.829
849.2033, 5396.180
851.1318, 5402.234
853.0602, 5392.336
854.9887, 5374.114
856.9172, 5362.210
858.8456, 5362.260
860.7741, 5383.200
862.7026, 5389.211
864.6310, 5343.055
866.5595, 5292.928
868.4880, 5292.844
870.4164, 5310.161
872.3449, 5307.027
874.2734, 5303.602
876.2018, 5309.799
878.1303, 5305.734
880.0588, 5278.097
881.9872, 5251.909
883.9157, 5261.021
885.8442, 5276.403
887.7726, 5268.392
889.7011, 5260.788
891.6296, 5256.094
893.5580, 5242.391
895.4865, 5236.006
897.4150, 5239.058
899.3434, 5228.911
901.2719, 5208.506
903.2004, 5198.693
905.1288, 5195.809
907.0573, 5190.165
908.9858, 5188.761
910.9142, 5195.102
912.8427, 5195.627
914.7712, 5181.156
916.6996, 5164.406
918.6281, 5153.174
920.5566, 5145.253
922.4850, 5148.847
924.4135, 5156.466
926.3420, 5140.399
928.2704, 5108.407
930.1989, 5094.782
932.1274, 5100.900
934.0558, 5116.547
935.9843, 5132.623
937.9128, 5124.657
939.8412, 5099.951
941.7697, 5089.005
943.6982, 5091.260
945.6266, 5093.832
947.5551, 5091.582
949.4836, 5079.846
951.4120, 5066.576
953.3405, 5068.967
955.2690, 5079.858
957.1974, 5078.471
959.1259, 5067.996
961.0544, 5054.264
962.9828, 5037.949
964.9113, 5030.867
966.8398, 5029.961
968.7682, 5017.775
970.6967, 4999.366
972.6252, 5000.078
974.5536, 5016.110
976.4821, 5023.773
978.4106, 5020.974
980.3391, 5002.731
982.2675, 4975.825
984.1960, 4972.284
986.1245, 4987.224
988.0529, 5000.567
989.9814, 5008.717
991.9099, 4991.355
993.8383, 4958.963
995.7668, 4958.257
997.6953, 4977.303
999.6237, 4968.257
1001.552, 4944.051
1003.481, 4950.626
1005.409, 4970.880
1007.338, 4951.895
1009.266, 4914.309
1011.195, 4910.021
1013.123, 4927.884
1015.051, 4943.615
1016.980, 4954.142
1018.908, 4962.939
1020.837, 4965.280
1022.765, 4939.774
1024.694, 4906.925
1026.622, 4902.957
1028.551, 4911.558
1030.479, 4910.913
1032.408, 4907.550
1034.336, 4908.935
1036.265, 4913.793
1038.193, 4919.682
1040.121, 4917.485
1042.050, 4902.328
1043.978, 4886.675
1045.907, 4881.460
1047.835, 4882.985
1049.764, 4877.974
1051.692, 4872.256
1053.621, 4876.754
1055.549, 4881.079
1057.478, 4889.780
1059.406, 4897.014
1061.335, 4885.376
1063.263, 4865.466
1065.192, 4850.109
1067.120, 4841.037
1069.048, 4826.828
1070.977, 4814.878
1072.905, 4819.905
1074.834, 4829.113
1076.762, 4835.328
1078.691, 4839.075
1080.619, 4843.018
1082.548, 4834.839
1084.476, 4801.047
1086.405, 4788.193
1088.333, 4824.917
1090.262, 4850.704
1092.190, 4831.958
1094.119, 4809.955
1096.047, 4804.961
1097.975, 4809.789
1099.904, 4825.769
1101.832, 4821.807
1103.761, 4788.298
1105.689, 4777.014
1107.618, 4793.083
1109.546, 4795.052
1111.475, 4782.226
1113.403, 4781.816
1115.332, 4791.265
1117.260, 4798.525
1119.189, 4804.145
1121.117, 4811.489
1123.046, 4815.376
1124.974, 4806.640
1126.902, 4800.468
1128.831, 4807.595
1130.759, 4805.986
1132.688, 4781.854
1134.616, 4762.364
1136.545, 4765.394
1138.473, 4769.648
1140.402, 4759.422
1142.330, 4752.066
1144.259, 4764.748
1146.187, 4777.106
1148.116, 4771.235
1150.044, 4768.543
1151.973, 4782.599
1153.901, 4773.940
1155.829, 4734.285
1157.758, 4716.486
1159.686, 4723.958
1161.615, 4723.533
1163.543, 4717.966
1165.472, 4715.362
1167.400, 4708.995
1169.329, 4707.297
1171.257, 4708.981
1173.186, 4704.531
1175.114, 4710.418
1177.043, 4716.264
1178.971, 4704.599
1180.900, 4706.820
1182.828, 4722.399
1184.756, 4706.073
1186.685, 4678.168
1188.613, 4693.794
1190.542, 4713.684
1192.470, 4674.331
1194.399, 4625.880
1196.327, 4611.790
1198.256, 4612.610
1200.184, 4640.629
1202.113, 4667.131
1204.041, 4646.038
1205.970, 4620.197
1207.898, 4626.837
1209.827, 4638.538
1211.755, 4633.179
1213.683, 4619.979
1215.612, 4607.183
1217.540, 4606.586
1219.469, 4625.251
1221.397, 4619.815
1223.326, 4581.686
1225.254, 4574.872
1227.183, 4599.647
1229.111, 4596.209
1231.040, 4575.069
1232.968, 4583.025
1234.897, 4600.750
1236.825, 4604.544
1238.754, 4601.691
1240.682, 4572.926
1242.610, 4549.157
1244.539, 4575.562
1246.467, 4603.375
1248.396, 4607.664
1250.324, 4593.220
1252.253, 4552.814
1254.181, 4528.843
1256.110, 4531.889
1258.038, 4540.911
1259.967, 4552.814
1261.895, 4546.390
1263.824, 4525.863
1265.752, 4524.842
1267.681, 4541.500
1269.609, 4554.886
1271.537, 4560.001
1273.466, 4552.589
1275.394, 4544.808
1277.323, 4554.401
1279.251, 4554.494
1281.180, 4512.137
1283.108, 4483.212
1285.037, 4504.563
1286.965, 4530.459
1288.894, 4546.436
1290.822, 4556.668
1292.751, 4559.433
1294.679, 4551.664
1296.608, 4534.211
1298.536, 4536.555
1300.464, 4553.512
1302.393, 4551.054
1304.321, 4541.553
1306.250, 4546.741
1308.178, 4556.204
1310.107, 4566.696
1312.035, 4567.763
1313.964, 4535.218
1315.892, 4511.588
1317.821, 4526.597
1319.749, 4548.785
1321.678, 4567.204
1323.606, 4575.957
1325.535, 4575.064
1327.463, 4564.833
1329.391, 4547.608
1331.320, 4526.061
1333.248, 4503.813
1335.177, 4517.783
1337.105, 4548.739
1339.034, 4561.829
1340.962, 4559.511
1342.891, 4530.443
1344.819, 4502.776
1346.748, 4490.635
1348.676, 4498.611
1350.605, 4542.293
1352.533, 4567.172
1354.462, 4561.839
1356.390, 4549.988
1358.318, 4535.161
1360.247, 4536.371
1362.175, 4548.306
1364.104, 4542.438
1366.032, 4529.979
1367.961, 4535.417
1369.889, 4542.661
1371.818, 4530.533
1373.746, 4519.013
1375.675, 4523.855
1377.603, 4526.762
1379.532, 4521.410
1381.460, 4515.076
1383.389, 4507.696
1385.317, 4505.687
1387.245, 4509.389
1389.174, 4525.206
1391.102, 4540.633
1393.031, 4516.378
1394.959, 4483.977
1396.888, 4475.970
1398.816, 4482.731
1400.745, 4515.302
1402.673, 4528.564
1404.602, 4495.828
1406.530, 4465.864
1408.459, 4440.026
1410.387, 4430.468
1412.316, 4436.543
1414.244, 4455.674
1416.172, 4476.092
1418.101, 4463.220
1420.029, 4442.720
1421.958, 4437.773
1423.886, 4438.270
1425.815, 4440.352
1427.743, 4442.994
1429.672, 4445.932
1431.600, 4450.388
1433.529, 4457.581
1435.457, 4454.429
1437.386, 4441.040
1439.314, 4404.978
1441.243, 4372.115
1443.171, 4394.105
1445.099, 4422.368
1447.028, 4426.505
1448.956, 4426.104
1450.885, 4427.169
1452.813, 4429.065
1454.742, 4432.830
1456.670, 4425.428
1458.599, 4408.681
1460.527, 4392.646
1462.456, 4380.826
1464.384, 4386.999
1466.313, 4390.384
1468.241, 4370.910
1470.170, 4351.842
1472.098, 4338.382
1474.026, 4340.491
1475.955, 4360.939
1477.883, 4378.334
1479.812, 4387.225
1481.740, 4349.088
1483.669, 4300.565
1485.597, 4317.123
1487.526, 4339.145
1489.454, 4312.352
1491.383, 4295.040
1493.311, 4305.591
1495.240, 4307.333
1497.168, 4295.811
1499.097, 4292.670
1501.025, 4295.632
1502.953, 4296.183
1504.882, 4290.655
1506.810, 4266.241
1508.739, 4246.365
1510.667, 4251.766
1512.596, 4248.167
1514.524, 4226.461
1516.453, 4234.015
1518.381, 4266.720
1520.310, 4260.032
1522.238, 4234.613
1524.167, 4234.938
1526.095, 4238.020
1528.024, 4215.002
1529.952, 4205.822
1531.880, 4233.369
1533.809, 4243.746
1535.737, 4233.149
1537.666, 4231.254
1539.594, 4234.028
1541.523, 4227.051
1543.451, 4214.847
1545.380, 4194.904
1547.308, 4184.342
1549.237, 4201.917
1551.165, 4206.790
1553.094, 4194.521
1555.022, 4166.586
1556.951, 4134.221
1558.879, 4149.475
1560.807, 4180.473
1562.736, 4199.577
1564.664, 4202.632
1566.593, 4170.398
1568.521, 4161.075
1570.450, 4194.206
1572.378, 4190.674
1574.307, 4157.612
1576.235, 4112.517
1578.164, 4086.385
1580.092, 4132.804
1582.021, 4170.289
1583.949, 4156.265
1585.878, 4132.473
1587.806, 4101.815
1589.734, 4093.792
1591.663, 4099.708
1593.591, 4075.637
1595.520, 4056.958
1597.448, 4092.135
1599.377, 4115.836
1601.305, 4099.867
1603.234, 4074.569
1605.162, 4042.942
1607.091, 4057.729
1609.019, 4092.484
1610.948, 4066.095
1612.876, 4039.253
1614.805, 4069.656
1616.733, 4081.881
1618.661, 4051.385
1620.590, 4023.282
1622.518, 4002.991
1624.447, 3994.204
1626.375, 3997.270
1628.304, 4030.019
1630.232, 4043.598
1632.161, 4006.554
1634.089, 3978.568
1636.018, 3970.313
1637.946, 3967.196
1639.875, 3967.109
1641.803, 3965.502
1643.732, 3966.986
1645.660, 3986.563
1647.589, 3987.770
1649.517, 3958.128
1651.445, 3934.104
1653.374, 3920.122
1655.302, 3921.628
1657.231, 3928.882
1659.159, 3928.104
1661.088, 3926.762
1663.016, 3933.786
1664.945, 3921.454
1666.873, 3888.459
1668.802, 3870.910
1670.730, 3865.327
1672.659, 3863.298
1674.587, 3861.905
1676.516, 3862.987
1678.444, 3853.676
1680.372, 3830.719
1682.301, 3817.935
1684.229, 3812.485
1686.158, 3799.553
1688.086, 3790.207
1690.015, 3797.175
1691.943, 3806.543
1693.872, 3818.549
1695.800, 3808.601
1697.729, 3784.437
1699.657, 3791.307
1701.586, 3803.084
1703.514, 3794.855
1705.443, 3778.244
1707.371, 3753.236
1709.299, 3729.064
1711.228, 3707.635
1713.156, 3708.376
1715.085, 3716.347
1717.013, 3717.883
1718.942, 3714.002
1720.870, 3702.054
1722.799, 3696.369
1724.727, 3695.836
1726.656, 3682.709
1728.584, 3669.935
1730.513, 3675.729
1732.441, 3676.928
1734.370, 3662.717
1736.298, 3658.180
1738.226, 3659.353
1740.155, 3614.550
1742.083, 3573.448
1744.012, 3596.858
1745.940, 3621.042
1747.869, 3625.974
1749.797, 3632.528
1751.726, 3639.694
1753.654, 3634.233
1755.583, 3624.283
1757.511, 3618.715
1759.440, 3606.153
1761.368, 3582.691
1763.297, 3571.658
1765.225, 3571.196
1767.153, 3583.757
1769.082, 3582.967
1771.010, 3539.278
1772.939, 3514.554
1774.867, 3519.095
1776.796, 3519.131
1778.724, 3509.825
1780.653, 3469.250
1782.581, 3445.291
1784.510, 3470.907
1786.438, 3473.307
1788.367, 3448.953
1790.295, 3444.458
1792.224, 3448.324
1794.152, 3445.237
1796.080, 3440.364
1798.009, 3434.090
1799.937, 3440.785
1801.866, 3452.741
1803.794, 3442.135
1805.723, 3426.237
1807.651, 3419.645
1809.580, 3414.703
1811.508, 3410.021
1813.437, 3393.275
1815.365, 3369.777
1817.294, 3344.570
1819.222, 3327.443
1821.151, 3326.094
1823.079, 3325.148
1825.007, 3325.993
1826.936, 3343.497
1828.864, 3356.700
1830.793, 3345.591
1832.721, 3323.767
1834.650, 3292.734
1836.578, 3272.673
1838.507, 3257.566
1840.435, 3232.616
1842.364, 3215.110
1844.292, 3218.136
1846.221, 3219.958
1848.149, 3219.042
1850.078, 3218.633
1852.006, 3211.359
1853.934, 3183.944
1855.863, 3169.210
1857.791, 3174.694
1859.720, 3185.708
1861.648, 3192.355
1863.577, 3161.018
1865.505, 3144.454
1867.434, 3172.901
1869.362, 3159.621
1871.291, 3118.343
1873.219, 3127.308
1875.148, 3143.205
1877.076, 3140.305
1879.005, 3128.188
1880.933, 3110.579
1882.861, 3100.886
1884.790, 3092.796
1886.718, 3083.202
1888.647, 3070.114
1890.575, 3052.585
1892.504, 3046.501
1894.432, 3046.618
1896.361, 3036.395
1898.289, 3033.851
1900.218, 3050.042
1902.146, 3043.422
1904.075, 3019.849
1906.003, 2995.571
1907.932, 2975.293
1909.860, 2964.889
1911.788, 2976.662
1913.717, 2999.237
1915.645, 2975.012
1917.574, 2937.376
1919.502, 2904.212
1921.431, 2883.318
1923.359, 2877.473
1925.288, 2891.085
1927.216, 2899.187
1929.145, 2856.877
1931.073, 2852.149
1933.002, 2894.911
1934.930, 2886.810
1936.859, 2855.540
1938.787, 2842.489
1940.715, 2830.730
1942.644, 2815.331
1944.572, 2790.504
1946.501, 2771.637
1948.429, 2789.280
1950.358, 2801.336
1952.286, 2793.692
1954.215, 2768.680
1956.143, 2737.957
1958.072, 2728.547
1960.000, 2724.062
1961.929, 2706.311
1963.857, 2703.437
1965.786, 2708.643
1967.714, 2690.164
1969.642, 2676.044
1971.571, 2689.292
1973.499, 2683.325
1975.428, 2663.629
1977.356, 2661.567
1979.285, 2650.863
1981.213, 2612.871
1983.142, 2605.159
1985.070, 2614.575
1986.999, 2608.283
1988.927, 2601.626
1990.856, 2596.829
1992.784, 2595.299
1994.713, 2594.437
1996.641, 2585.300
1998.569, 2567.062
2000.498, 2541.375
2002.426, 2521.635
2004.355, 2507.363
2006.283, 2499.227
2008.212, 2491.680
2010.140, 2482.136
2012.069, 2478.760
2013.997, 2479.942
2015.926, 2478.793
2017.854, 2484.784
2019.783, 2502.173
2021.711, 2502.023
2023.640, 2484.817
2025.568, 2439.463
2027.496, 2413.800
2029.425, 2417.647
2031.353, 2402.322
2033.282, 2378.937
2035.210, 2364.733
2037.139, 2354.148
2039.067, 2342.807
2040.996, 2334.864
2042.924, 2326.119
2044.853, 2304.451
2046.781, 2292.527
2048.709, 2292.258
2050.638, 2312.048
2052.566, 2326.504
2054.495, 2304.080
2056.423, 2289.823
2058.352, 2284.453
2060.280, 2263.696
2062.209, 2249.051
2064.137, 2264.722
2066.066, 2245.327
2067.994, 2210.655
2069.923, 2217.266
2071.851, 2221.032
2073.780, 2200.444
2075.708, 2193.943
2077.636, 2191.352
2079.565, 2171.331
2081.493, 2164.725
2083.422, 2180.713
2085.350, 2162.941
2087.279, 2139.069
2089.207, 2138.397
2091.136, 2130.591
2093.064, 2113.389
2094.993, 2094.458
2096.921, 2089.031
2098.850, 2113.066
2100.778, 2101.214
2102.707, 2066.981
2104.635, 2050.499
2106.563, 2049.458
2108.492, 2064.339
2110.420, 2073.401
2112.349, 2071.214
2114.277, 2043.473
2116.206, 2034.800
2118.134, 2047.244
2120.063, 2030.654
2121.991, 2009.814
2123.920, 1999.730
2125.848, 1993.103
2127.777, 1988.399
2129.705, 1992.438
2131.634, 1987.243
2133.562, 1966.452
2135.490, 1952.488
2137.419, 1944.048
2139.347, 1940.565
2141.276, 1928.196
2143.204, 1911.589
2145.133, 1916.707
2147.061, 1914.689
2148.990, 1888.543
2150.918, 1901.972
2152.847, 1922.496
2154.775, 1885.403
2156.704, 1856.047
2158.632, 1844.258
2160.561, 1840.722
2162.489, 1846.406
2164.417, 1869.389
2166.346, 1857.372
2168.274, 1824.370
2170.203, 1804.565
2172.131, 1803.676
2174.060, 1822.648
2175.988, 1812.014
2177.917, 1793.573
2179.845, 1790.099
2181.774, 1789.995
2183.702, 1786.233
2185.631, 1758.036
2187.559, 1743.076
2189.488, 1754.270
2191.416, 1755.287
2193.344, 1747.963
2195.273, 1722.747
2197.201, 1711.538
2199.130, 1713.058
2201.058, 1727.990
2202.987, 1730.484
2204.915, 1691.104
2206.844, 1678.402
2208.772, 1682.623
2210.701, 1678.173
2212.629, 1671.721
2214.558, 1668.299
2216.486, 1660.314
2218.415, 1653.382
2220.343, 1663.764
2222.271, 1657.356
2224.200, 1642.261
2226.128, 1635.370
2228.057, 1616.859
2229.985, 1596.708
2231.914, 1605.075
2233.842, 1599.009
2235.771, 1565.517
2237.699, 1548.141
2239.628, 1548.953
2241.556, 1566.873
2243.485, 1571.245
2245.413, 1566.908
2247.342, 1559.540
2249.270, 1545.552
2251.198, 1529.432
2253.127, 1534.645
2255.055, 1537.679
2256.984, 1518.466
2258.912, 1512.131
2260.841, 1511.796
2262.769, 1517.842
2264.698, 1515.022
2266.626, 1503.975
2268.555, 1486.014
2270.483, 1479.804
2272.412, 1484.086
2274.340, 1461.916
2276.269, 1441.561
2278.197, 1446.151
2280.125, 1449.090
2282.054, 1450.909
2283.982, 1460.970
2285.911, 1450.409
2287.839, 1420.244
2289.768, 1409.110
2291.696, 1414.517
2293.625, 1416.756
2295.553, 1406.587
2297.482, 1400.872
2299.410, 1392.530
2301.339, 1388.036
2303.267, 1374.058
2305.196, 1345.957
2307.124, 1350.416
2309.052, 1369.761
2310.981, 1349.321
2312.909, 1331.505
2314.838, 1326.158
2316.766, 1322.262
2318.695, 1327.597
2320.623, 1335.023
2322.552, 1331.997
2324.480, 1322.033
2326.409, 1302.094
2328.337, 1291.468
2330.266, 1287.387
2332.194, 1288.788
2334.123, 1274.556
2336.051, 1241.536
2337.979, 1244.800
2339.908, 1258.224
2341.836, 1253.316
2343.765, 1254.020
2345.693, 1253.941
2347.622, 1235.777
2349.550, 1238.765
2351.479, 1237.039
2353.407, 1219.279
2355.336, 1213.163
2357.264, 1216.287
2359.193, 1229.862
2361.121, 1227.488
2363.050, 1207.040
2364.978, 1193.077
2366.906, 1182.072
2368.835, 1169.432
2370.763, 1158.650
2372.692, 1145.474
2374.620, 1153.139
2376.549, 1153.195
2378.477, 1148.900
2380.406, 1163.836
2382.334, 1158.495
2384.263, 1145.933
2386.191, 1138.038
2388.120, 1138.905
2390.048, 1136.782
2391.977, 1122.731
2393.905, 1104.253
2395.833, 1095.677
2397.762, 1111.663
2399.690, 1107.015
2401.619, 1088.664
2403.547, 1077.760
2405.476, 1071.709
2407.404, 1075.322
2409.333, 1065.536
2411.261, 1063.629
2413.190, 1076.907
2415.118, 1066.107
2417.047, 1047.964
2418.975, 1044.917
2420.904, 1038.847
2422.832, 1031.329
2424.760, 1020.573
2426.689, 1014.202
2428.617, 1007.495
2430.546, 1018.449
2432.474, 1020.051
2434.403, 1012.316
2436.331, 1011.303
2438.260, 1008.708
2440.188, 1004.343
2442.117, 988.8947
2444.045, 972.2571
2445.974, 964.1546
2447.902, 977.6105
2449.831, 975.1991
2451.759, 953.6519
2453.688, 948.6182
2455.616, 944.9819
2457.544, 929.5898
2459.473, 924.8640
2461.401, 922.9884
2463.330, 914.6494
2465.258, 923.0796
2467.187, 939.3843
2469.115, 940.8988
2471.044, 932.2564
2472.972, 924.2454
2474.901, 909.8613
2476.829, 898.7438
2478.758, 891.8776
2480.686, 892.6523
2482.615, 882.9505
2484.543, 876.2134
2486.471, 882.4495
2488.400, 872.2863
2490.328, 861.5892
2492.257, 862.7720
2494.185, 870.1687
2496.114, 876.4678
2498.042, 867.8079
2499.971, 862.1803
2501.899, 856.2819
2503.828, 838.5255
2505.756, 830.9934
2507.685, 824.1023
2509.613, 814.6675
2511.542, 814.2668
2513.470, 814.4813
2515.398, 805.9280
2517.327, 801.9800
2519.255, 796.7159
2521.184, 792.7333
2523.112, 795.4259
2525.041, 798.1622
2526.969, 792.0391
2528.898, 787.0139
2530.826, 782.8652
2532.755, 769.3934
2534.683, 763.1215
2536.612, 764.0864
2538.540, 769.8229
2540.469, 768.2057
2542.397, 763.0828
2544.325, 752.7958
2546.254, 744.3711
2548.182, 740.0602
2550.111, 744.9607
2552.039, 745.4138
2553.968, 741.2698
2555.896, 738.2224
2557.825, 734.0188
2559.753, 732.3613
2561.682, 728.9901
2563.610, 719.9236
2565.539, 710.5967
2567.467, 708.3411
2569.396, 707.9010
2571.324, 702.3950
2573.252, 690.5162
2575.181, 683.9260
2577.109, 679.6241
2579.038, 674.7150
2580.966, 675.4079
2582.895, 680.4244
2584.823, 690.5536
2586.752, 674.5771
2588.680, 658.3085
2590.609, 664.2587
2592.537, 664.0620
2594.466, 658.6998
2596.394, 651.2556
2598.323, 646.8568
2600.251, 641.9500
2602.179, 635.1765
2604.108, 634.4650
2606.036, 640.7127
2607.965, 651.0148
2609.893, 640.7921
2611.822, 625.9380
2613.750, 614.4120
2615.679, 615.3065
2617.607, 612.1604
2619.536, 603.6475
2621.464, 608.7115
2623.393, 607.4815
2625.321, 599.7266
2627.250, 603.2921
2629.178, 598.7264
2631.106, 588.0825
2633.035, 592.2745
2634.963, 588.5635
2636.892, 578.2855
2638.820, 577.9824
2640.749, 569.8798
2642.677, 561.1612
2644.606, 563.8154
2646.534, 562.9879
2648.463, 557.5005
2650.391, 544.6401
2652.320, 549.7560
2654.248, 553.3093
2656.177, 546.7266
2658.105, 541.8525
2660.033, 533.2054
2661.962, 523.6954
2663.890, 526.5350
2665.819, 519.8409
2667.747, 503.4128
2669.676, 521.1077
2671.604, 521.8414
2673.533, 512.9753
2675.461, 507.2172
2677.390, 502.2954
2679.318, 500.2134
2681.247, 503.5634
2683.175, 500.9244
2685.104, 494.1033
2687.032, 495.3113
2688.960, 487.8614
2690.889, 479.9291
2692.817, 478.9500
2694.746, 477.0500
2696.674, 478.4608
2698.603, 474.1524
2700.531, 465.8103
2702.460, 459.3090
2704.388, 460.5368
2706.317, 460.4774
2708.245, 456.7650
2710.174, 458.9983
2712.102, 456.1801
2714.031, 452.6688
2715.959, 450.2802
2717.887, 445.4439
2719.816, 434.4358
2721.744, 426.3126
2723.673, 433.3194
2725.601, 442.5808
2727.530, 438.0129
2729.458, 432.4024
2731.387, 422.8118
2733.315, 417.8385
2735.244, 423.1370
2737.172, 418.6510
2739.101, 414.5402
2741.029, 403.9186
2742.958, 403.5834
2744.886, 412.5350
2746.814, 408.6589
2748.743, 401.8557
2750.671, 404.8205
2752.600, 403.8344
2754.528, 393.4574
2756.457, 381.8936
2758.385, 381.0828
2760.314, 382.0053
2762.242, 387.8298
2764.171, 378.0302
2766.099, 371.1553
2768.028, 365.4506
2769.956, 365.5699
2771.885, 368.1358
2773.813, 361.6060
2775.741, 355.4627
2777.670, 354.1408
2779.598, 355.7275
2781.527, 365.6647
2783.455, 365.2432
2785.384, 353.7235
2787.312, 341.4852
2789.241, 339.2259
2791.169, 345.5845
2793.098, 345.7305
2795.026, 345.8297
2796.955, 344.0882
2798.883, 332.3370
2800.812, 334.3742
2802.740, 335.2146
2804.668, 329.7241
2806.597, 323.9611
2808.525, 320.0676
2810.454, 320.4641
2812.382, 317.4088
2814.311, 314.2512
2816.239, 310.0321
2818.168, 305.8420
2820.096, 307.8024
2822.025, 309.4150
2823.953, 314.7571
2825.882, 309.0718
2827.810, 305.6479
2829.739, 301.2011
2831.667, 299.2344
2833.595, 311.6562
2835.524, 310.5898
2837.452, 301.2054
2839.381, 306.9787
2841.309, 310.4188
2843.238, 309.6025
2845.166, 301.6063
2847.095, 300.8217
2849.023, 302.9816
2850.952, 299.8819
2852.880, 293.9749
2854.809, 283.7707
2856.737, 279.1579
2858.666, 286.8839
2860.594, 288.1710
2862.522, 282.4563
2864.451, 271.3136
2866.379, 279.1077
2868.308, 273.4434
2870.236, 264.3376
2872.165, 273.8399
2874.093, 275.9727
2876.022, 277.1745
2877.950, 268.7154
2879.879, 259.5388
2881.807, 260.3165
2883.736, 258.9150
2885.664, 260.9639
2887.593, 260.4419
2889.521, 265.5286
2891.449, 264.8298
2893.378, 257.5208
2895.306, 254.5002
2897.235, 238.5508
2899.163, 235.2375
2901.092, 243.8647
2903.020, 250.0179
2904.949, 240.4987
2906.877, 231.5006
2908.806, 230.9984
2910.734, 234.1550
2912.663, 232.0884
2914.591, 228.0062
2916.520, 228.7909
2918.448, 218.0717
2920.376, 215.6312
2922.305, 219.1982
2924.233, 216.7496
2926.162, 211.9018
2928.090, 207.5444
2930.019, 202.7724
2931.947, 209.8524
2933.876, 204.7751
2935.804, 203.0676
2937.733, 210.9454
2939.661, 209.6840
2941.590, 200.8326
2943.518, 195.1405
2945.447, 193.4478
2947.375, 188.3765
2949.303, 183.8629
2951.232, 183.0895
2953.160, 185.3806
2955.089, 184.9630
2957.017, 183.7842
2958.946, 176.9923
2960.874, 174.9646
2962.803, 171.2475
2964.731, 171.9974
2966.660, 171.8783
2968.588, 169.9177
2970.517, 169.2274
2972.445, 163.6594
2974.374, 169.5119
2976.302, 159.8568
2978.230, 151.5997
2980.159, 160.4268
2982.087, 167.3133
2984.016, 166.5396
2985.944, 162.7159
2987.873, 161.9545
2989.801, 151.2529
2991.730, 147.0267
2993.658, 147.6099
2995.587, 150.4395
2997.515, 156.4135
2999.444, 153.5422
3001.372, 149.5028
3003.301, 143.2428
3005.229, 138.7433
3007.157, 139.0458
3009.086, 141.6789
3011.014, 137.0089
3012.943, 135.5664
3014.871, 139.2821
3016.800, 135.4885
3018.728, 132.4179
3020.657, 130.0132
3022.585, 127.8691
3024.514, 124.2144
3026.442, 127.7872
3028.371, 129.2872
3030.299, 120.6808
3032.228, 118.8822
3034.156, 120.4390
3036.084, 118.3467
3038.013, 114.7938
3039.941, 114.6365
3041.870, 115.4419
3043.798, 116.0212
3045.727, 111.5434
3047.655, 105.2936
3049.584, 110.1770
3051.512, 119.8706
3053.441, 110.3622
3055.369, 110.7644
3057.298, 111.9292
3059.226, 105.9681
3061.155, 99.02493
3063.083, 106.0546
3065.011, 112.1777
3066.940, 107.2586
3068.868, 104.1281
3070.797, 103.7416
3072.725, 103.1285
3074.654, 99.38546
3076.582, 101.7855
3078.511, 100.4998
3080.439, 98.89521
3082.368, 103.1720
3084.296, 92.51503
3086.225, 88.46017
3088.153, 90.48083
3090.082, 90.76405
3092.010, 88.35670
3093.938, 91.20774
3095.867, 95.24705
3097.795, 91.40392
3099.724, 95.25053
3101.652, 95.80938
3103.581, 92.17664
3105.509, 91.70936
3107.438, 82.89634
3109.366, 80.39610
3111.295, 83.04919
3113.223, 75.36371
3115.152, 76.45508
3117.080, 79.03600
3119.009, 79.47055
3120.937, 78.51322
3122.865, 74.93330
3124.794, 75.27683
3126.722, 78.88586
3128.651, 76.99291
3130.579, 70.98907
3132.508, 71.34086
3134.436, 76.00717
3136.365, 69.94613
3138.293, 69.51846
3140.222, 66.46143
3142.150, 60.57675
3144.079, 65.86485
3146.007, 71.34584
3147.936, 68.16830
3149.864, 61.70535
3151.792, 63.83988
3153.721, 67.91860
3155.649, 66.12222
3157.578, 59.48097
3159.506, 57.43896
3161.435, 53.01290
3163.363, 57.92146
3165.292, 65.99769
3167.220, 63.37266
3169.149, 59.64646
3171.077, 58.04423
3173.006, 60.35836
3174.934, 66.15381
3176.863, 64.84225
3178.791, 62.56062
3180.719, 59.52321
3182.648, 57.95151
3184.576, 55.99230
3186.505, 52.09003
3188.433, 50.44183
3190.362, 51.00269
3192.290, 50.07849
3194.219, 49.13804
3196.147, 52.01949
3198.076, 56.56328
3200.004, 53.62058
3201.933, 57.77648
3203.861, 55.58422
3205.790, 51.10173
3207.718, 59.98267
3209.646, 52.78333
3211.575, 49.97805
3213.503, 52.81924
3215.432, 52.48879
3217.360, 41.77841
3219.289, 45.54664
3221.217, 52.07566
3223.146, 45.34961
3225.074, 53.91693
3227.003, 48.89949
3228.931, 44.28559
3230.860, 48.98716
3232.788, 44.39023
3234.717, 41.88969
3236.645, 43.21247
3238.573, 46.40901
3240.502, 45.39178
3242.430, 50.33028
3244.359, 45.28775
3246.287, 39.76766
3248.216, 48.90126
3250.144, 48.91096
3252.073, 49.18738
3254.001, 48.00195
3255.930, 44.17305
3257.858, 38.83069
3259.787, 40.56865
3261.715, 44.69688
3263.644, 46.96520
3265.572, 42.13452
3267.500, 38.66665
3269.429, 41.93235
3271.357, 47.12897
3273.286, 46.73217
3275.214, 44.86663
3277.143, 40.84734
3279.071, 41.09088
3281.000, 44.92282
3282.928, 38.81434
3284.857, 40.67332
3286.785, 40.54828
3288.714, 39.71077
3290.642, 41.76879
3292.571, 46.10470
3294.499, 37.10499
3296.427, 31.67054
3298.356, 34.58927
3300.284, 34.16600
3302.213, 36.67709
3304.141, 36.85189
3306.070, 37.04611
3307.998, 39.94098
3309.927, 38.58721
3311.855, 40.03653
3313.784, 37.63338
3315.712, 31.52304
3317.641, 35.41331
3319.569, 34.67110
3321.498, 28.53351
3323.426, 26.69837
3325.354, 34.72863
3327.283, 33.33939
3329.211, 31.58066
3331.140, 30.51255
3333.068, 29.36085
3334.997, 31.38646
3336.925, 29.00542
3338.854, 34.99124
3340.782, 35.02935
3342.711, 25.68882
3344.639, 33.07727
3346.568, 33.84457
3348.496, 36.65087
3350.425, 39.03047
3352.353, 34.61783
3354.281, 27.10089
3356.210, 38.39374
3358.138, 41.15744
3360.067, 32.39668
3361.995, 33.14837
3363.924, 28.26184
3365.852, 24.72911
3367.781, 25.29640
3369.709, 27.42432
3371.638, 20.28086
3373.566, 19.21821
3375.495, 29.60257
3377.423, 35.28289
3379.352, 26.51356
3381.280, 28.08810
3383.208, 27.86789
3385.137, 33.05183
3387.065, 35.80016
3388.994, 24.87967
3390.922, 18.04856
3392.851, 22.26410
3394.779, 19.47744
3396.708, 14.68898
3398.636, 25.56829
3400.565, 28.05114
3402.493, 26.11477
3404.422, 24.06354
3406.350, 24.47824
3408.279, 26.05779
3410.207, 25.07867
3412.135, 24.41677
3414.064, 19.29492
3415.992, 15.54121
3417.921, 26.18976
3419.849, 29.41692
3421.778, 24.09414
3423.706, 22.34750
3425.635, 24.77121
3427.563, 20.92347
3429.492, 27.37996
3431.420, 21.92978
3433.349, 15.48603
3435.277, 17.22519
3437.206, 26.83594
3439.134, 27.87271
3441.063, 21.51322
3442.991, 16.85312
3444.919, 17.78005
3446.848, 22.30252
3448.776, 20.10503
3450.705, 23.47519
3452.633, 24.25035
3454.562, 22.20292
3456.490, 23.00782
3458.419, 18.82635
3460.347, 14.92784
3462.276, 20.14623
3464.204, 25.22683
3466.133, 18.75555
3468.061, 20.71887
3469.990, 19.77802
3471.918, 16.46102
3473.846, 14.98373
3475.775, 17.94151
3477.703, 24.08254
3479.632, 14.72377
3481.560, 13.18868
3483.489, 17.14272
3485.417, 19.12303
3487.346, 17.77246
3489.274, 25.22765
3491.203, 22.11674
3493.131, 16.91758
3495.060, 15.58335
3496.988, 15.44937
3498.917, 17.13372
3500.845, 21.28219
3502.773, 25.49054
3504.702, 26.30501
3506.630, 21.63649
3508.559, 14.10784
3510.487, 14.43953
3512.416, 20.43878
3514.344, 23.08282
3516.273, 20.56830
3518.201, 21.32722
3520.130, 18.01221
3522.058, 25.47792
3523.987, 24.45635
3525.915, 16.93541
3527.844, 18.20330
3529.772, 21.21517
3531.700, 23.89748
3533.629, 25.82719
3535.557, 25.03417
3537.486, 22.37440
3539.414, 22.94150
3541.343, 24.98052
3543.271, 23.07825
3545.200, 20.60887
3547.128, 21.04001
3549.057, 24.77889
3550.985, 27.80533
3552.914, 18.97822
3554.842, 13.72263
3556.771, 16.09172
3558.699, 20.28671
3560.627, 17.18224
3562.556, 14.80363
3564.484, 24.33630
3566.413, 24.23068
3568.341, 22.15364
3570.270, 25.88711
3572.198, 18.25602
3574.127, 24.70185
3576.055, 16.99923
3577.984, 14.28658
3579.912, 19.61225
3581.841, 22.12277
3583.769, 15.54548
3585.698, 20.32628
3587.626, 17.56652
3589.554, 19.56585
3591.483, 23.35141
3593.411, 16.61363
3595.340, 16.70267
3597.268, 9.318114
3599.197, 11.28392
3601.125, 13.66509
3603.054, 10.20795
3604.982, 5.741658
3606.911, 13.92034
3608.839, 10.65406
3610.768, 11.42686
3612.696, 15.96457
3614.625, 17.02320
3616.553, 10.94048
3618.481, 6.315782
3620.410, 14.52562
3622.338, 12.39310
3624.267, 13.95623
3626.195, 19.23990
3628.124, 15.48444
3630.052, 12.44349
3631.981, 6.496109
3633.909, 10.52022
3635.838, 10.48440
3637.766, 9.509573
3639.695, 15.25566
3641.623, 0.6815180
3643.552, 4.141610
3645.480, 4.130033
3647.408, 4.865768
3649.337, 8.610956
3651.265, 12.29847
3653.194, 11.83925
3655.122, 6.417248
3657.051, 9.795790
3658.979, 10.27902
3660.908, 5.734679
3662.836, 2.226358
3664.765, 6.250647
3666.693, 11.45817
3668.622, 4.593394
3670.550, 2.599041
3672.479, 3.888556
3674.407, 8.905105
3676.335, 16.54630
3678.264, 7.667484
3680.192, 0.1174626
3682.121, 1.860698
3684.049, 3.642873
3685.978, 6.368494
3687.906, 10.40687
3689.835, 9.787952
3691.763, 6.951923
3693.692, 8.727804
3695.620, 9.952817
3697.549, 8.876809
3699.477, 5.687127
3701.406, 3.150204
3703.334, 7.720126
3705.262, 0.3398071
3707.191, 1.971472
3709.119, 4.603795
3711.048, 6.161503
3712.976, 8.176044
3714.905, 10.55054
3716.833, 9.132209
3718.762, 7.085598
3720.690, 1.152994
3722.619, 3.461762
3724.547, 8.235191
3726.476, 10.04434
3728.404, 10.59673
3730.333, 3.219342
3732.261, 0.5820764
3734.189, -1.753437
3736.118, 3.707422
3738.046, 8.735201
3739.975, 6.742390
3741.903, 4.476359
3743.832, 17.79724
3745.760, 5.562514
3747.689, 3.662497
3749.617, 6.354391
3751.546, 2.292393
3753.474, -1.042462
3755.403, 6.187309
3757.331, 1.187541
3759.260, 6.425068
3761.188, 8.399496
3763.116, 0.7753253
3765.045, -2.773790
3766.973, 0.4875706
3768.902, 2.874246
3770.830, 3.765650
3772.759, 4.996985
3774.687, 2.721952
3776.616, 2.515885
3778.544, 3.032600
3780.473, 2.613125
3782.401, 2.011932
3784.330, 2.855186
3786.258, 3.551339
3788.187, 6.354738
3790.115, 6.208838
3792.043, 2.235147
3793.972, 0.4151489
3795.900, 2.383509
3797.829, 4.933239
3799.757, 6.743557
3801.686, 6.067860
3803.614, 6.127769
3805.543, 4.731221
3807.471, 4.268483
3809.400, 2.590003
3811.328, 1.657501
3813.257, 6.945811
3815.185, 11.03337
3817.114, 3.581682
3819.042, 1.403528
3820.970, 11.21933
3822.899, 5.908891
3824.827, -1.078604
3826.756, 0.4650651
3828.684, -3.499235
3830.613, 7.427279
3832.541, -2.325174
3834.470, 0.2219592
3836.398, 2.466365
3838.327, -0.4337971
3840.255, 3.0387551E-02
3842.184, 3.799255
3844.112, 2.040098
3846.041, -1.845389
3847.969, 1.143103
3849.897, 3.438309
3851.826, 3.607245
3853.754, 5.552243
3855.683, 6.986970
3857.611, 5.182952
3859.540, 2.025121
3861.468, 1.950537
3863.397, 1.672255
3865.325, 4.886934
3867.254, 8.431016
3869.182, 2.748107
3871.111, 8.5740931E-02
3873.039, 5.1508568E-02
3874.968, -9.3601570E-02
3876.896, 3.461149
3878.824, -4.0621590E-02
3880.753, 5.459015
3882.681, 2.572246
3884.610, -0.8168933
3886.538, -3.019250
3888.467, -1.891242
3890.395, 2.486442
3892.324, 5.704664
3894.252, 4.098296
3896.181, 3.262511
3898.109, 0.5792251
3900.038, -0.7509487
3901.966, -1.720343
3903.895, 3.054075
3905.823, 1.725422
3907.751, -1.026813
3909.680, 2.168519
3911.608, 4.023583
3913.537, 6.972586
3915.465, 3.584163
3917.394, 3.338094
3919.322, 0.3527142
3921.251, 3.136685
3923.179, 4.559382
3925.108, 1.676153
3927.036, -1.288988
3928.965, -0.6376562
3930.893, 3.844129
3932.822, 6.151143
3934.750, 2.931702
3936.678, -0.4080661
3938.607, 5.825129
3940.535, 5.475280
3942.464, 2.819282
3944.392, 1.165885
3946.321, 0.7037961
3948.249, 2.703349
3950.178, 1.029011
3952.106, 4.254470
3954.035, -3.107606
3955.963, -7.8610770E-02
3957.892, -0.1861150
3959.820, -1.828963
3961.749, -0.9238349
3963.677, -0.4016779
3965.605, -2.841167
3967.534, -4.911372
3969.462, -2.165702
3971.391, -0.3349499
3973.319, 2.439986
3975.248, 5.907708
3977.176, -4.385975
3979.105, -2.583427
3981.033, 3.259097
3982.962, 0.9827666
3984.890, 0.6029327
3986.819, 1.596942
3988.747, -7.128742
3990.676, 1.563118
3992.604, 3.382458
3994.532, -2.003335
3996.461, -4.203948
3998.389, -2.336627
4000.318, 0.7153413
4002.246, 2.344443
4004.175, 4.649639
4006.103, 2.786294
4008.032, -1.468632
4009.960, 3.4697279E-02
4011.889, -2.041678
4013.817, -10.03291
4015.746, -4.282639
4017.674, -0.3788269
4019.603, -1.852796
4021.531, -0.6414465
4023.459, 4.377028
4025.388, 5.049986
4027.316, 2.412630
4029.245, -1.772694
4031.173, -4.419766
4033.102, -1.101365
4035.030, -2.122666
4036.959, -2.230189
4038.887, 3.636412
4040.816, 2.293280
4042.744, -4.300720
4044.673, -8.306973
4046.601, 0.8023802
4048.530, -2.698838
4050.458, -0.4083186
4052.386, 4.935733
4054.315, 2.042905
4056.243, 0.3020980
4058.172, -1.492456
4060.100, 2.985445
4062.029, 0.5713835
4063.957, -6.048890
4065.886, 0.5600295
4067.814, 2.315981
4069.743, 0.4168975
4071.671, 1.296098
4073.600, 2.213445
4075.528, 0.9443824
4077.457, 4.440089
4079.385, 3.996276
4081.313, -2.021023
4083.242, 0.2832085
4085.170, -4.955860
4087.099, 0.7368349
4089.027, 3.160936
4090.956, -1.754714
4092.884, 1.903761
4094.813, -3.134935
4096.741, -1.872559
4098.669, 3.589277
4100.598, 4.190126
4102.526, 2.386119
4104.455, 2.775930
4106.383, 5.841187
4108.312, 3.212456
4110.240, -3.159225
4112.169, 1.074821
4114.097, 0.7642152
4116.026, -2.228473
4117.954, 4.946572
4119.883, 0.1312463
4121.811, 6.960964
4123.740, 0.4217578
4125.668, 0.5622982
4127.597, 6.784608
4129.525, 7.019705
4131.454, 3.437587
4133.382, -2.179649
4135.311, 2.436751
4137.239, 2.562226
4139.167, 0.7563598
4141.096, 6.173935
4143.024, -8.3086737E-02
4144.953, 6.119640
4146.881, 5.595640
4148.810, 6.268330
4150.738, -1.864228
4152.667, 4.965180
4154.595, -1.739486
4156.523, 5.843238
4158.452, 4.671051
4160.380, 7.139727
4162.309, 3.729412
4164.237, 2.918159
4166.166, 7.824421
4168.094, 4.280766
4170.023, -3.142442
4171.951, -5.155756
4173.880, -1.081712
4175.808, 2.932083
4177.737, 1.983764
4179.665, 2.792428
4181.594, 4.775829
4183.522, -3.802879
4185.451, 5.826108
4187.379, 0.3660032
4189.308, 4.866606
4191.236, 5.966302
4193.165, -1.389730
4195.093, 2.669783
4197.021, -1.461874
4198.950, 1.405015
4200.878, 5.453529
4202.807, 7.095859
4204.735, 3.360757
4206.664, -0.2913795
4208.592, 3.848424
4210.521, 3.771815
4212.449, 6.668336
4214.377, 0.4597799
4216.306, -4.127359
4218.234, 5.002050
4220.163, 0.5655262
4222.091, 2.861411
4224.020, 8.934610
4225.948, 2.143405
4227.877, 1.059756
4229.805, -1.037720
4231.734, 0.9122798
4233.662, 5.134399
4235.591, 5.725821
4237.519, -0.7736723
4239.448, 4.028345
4241.376, -0.3612896
4243.305, 0.7653643
4245.233, 0.2413075
4247.162, -0.1220821
4249.090, 0.5349083
4251.019, 3.358005
4252.947, -1.679847
4254.875, -0.4820770
4256.804, 5.842014
4258.732, 6.966523
4260.661, -1.448193
4262.589, -3.145144
4264.518, -3.013360
4266.446, 4.288307
4268.375, 7.867809
4270.303, 2.653034
4272.231, 5.709570
4274.160, 8.584311
4276.088, 11.32451
4278.017, 9.456293
4279.945, -4.978128
4281.874, 1.480541
4283.802, -7.926765
4285.731, -5.557130
4287.659, 3.153477
4289.588, 3.180452
4291.516, 2.481976
4293.445, 3.031973
4295.373, -3.139238
4297.302, -4.443999
4299.230, 4.047579
4301.159, 2.404445
4303.087, 0.9637570
4305.016, 5.539753
4306.944, -0.9384888
4308.873, -8.802627
4310.801, 1.494553
4312.729, -7.137475
4314.658, 1.382437
4316.586, -4.751977
4318.515, -1.338558
4320.443, 2.878352
4322.372, 1.801336
4324.300, -0.7227367
4326.229, 0.6681684
4328.157, -6.912599
4330.085, -7.485460
4332.014, -5.424801
4333.942, -2.433779
4335.871, 1.251986
##END=



