##NAMES=Hureaulite
##RRUFFID=R090070
##IDEAL CHEMISTRY=Mn^2+^_5_(P^5+^O_4_)_2_(P^5+^O_3_OH)_2_&#183;4H_2_O
##LOCALITY=Cigana Mine (ex-Jocão Mine), Galiléia, Minas Gerais  Brazil
##OWNER=RRUFF
##SOURCE=Royal Ontario Museum 
##DESCRIPTION=Cluster of pink prismatic crystals on reddingite, R090069, associated with colorless ludlamite, R090071
##STATUS=The identification of this mineral has been confirmed only by single crystal X-ray diffraction.
##URL=rruff.info/R090070
91.82715, 172.8665
92.30927, 168.6323
92.79138, 169.4543
93.27350, 174.0157
93.75562, 178.3920
94.23773, 180.7040
94.71985, 181.6747
95.20197, 183.9206
95.68408, 188.6147
96.16620, 194.8631
96.64832, 202.1411
97.13043, 210.5884
97.61255, 219.4407
98.09467, 227.6880
98.57678, 235.1994
99.05890, 242.0758
99.54102, 249.2272
100.0231, 256.5079
100.5052, 263.9500
100.9874, 271.7733
101.4695, 279.4591
101.9516, 284.1671
102.4337, 285.6149
102.9158, 284.0354
103.3979, 278.7518
103.8801, 270.4239
104.3622, 259.9153
104.8443, 247.6301
105.3264, 233.1048
105.8085, 221.1448
106.2906, 211.8119
106.7728, 204.2230
107.2549, 197.8837
107.7370, 192.7397
108.2191, 189.0318
108.7012, 187.3790
109.1833, 187.8967
109.6655, 188.8533
110.1476, 189.6351
110.6297, 190.8199
111.1118, 193.3863
111.5939, 197.7104
112.0760, 203.1058
112.5582, 208.3522
113.0403, 213.4534
113.5224, 220.0738
114.0045, 229.3472
114.4866, 241.2379
114.9688, 254.3000
115.4509, 269.6004
115.9330, 285.0782
116.4151, 300.4492
116.8972, 315.4589
117.3793, 328.5726
117.8615, 338.2540
118.3436, 345.2531
118.8257, 346.0781
119.3078, 337.7216
119.7899, 325.7417
120.2720, 313.4201
120.7542, 302.1622
121.2363, 292.5421
121.7184, 286.1558
122.2005, 287.3904
122.6826, 287.4348
123.1647, 286.2812
123.6468, 283.4924
124.1290, 278.5838
124.6111, 271.2129
125.0932, 261.4325
125.5753, 249.6496
126.0574, 233.3935
126.5395, 218.0274
127.0217, 205.6089
127.5038, 195.9906
127.9859, 188.1713
128.4680, 181.5141
128.9501, 176.2617
129.4323, 172.4391
129.9144, 170.5385
130.3965, 169.7821
130.8786, 169.3024
131.3607, 168.9740
131.8428, 169.4050
132.3250, 171.2260
132.8071, 174.1003
133.2892, 177.6473
133.7713, 182.2114
134.2534, 187.3948
134.7355, 192.0183
135.2177, 196.5680
135.6998, 199.6576
136.1819, 200.5547
136.6640, 199.6333
137.1461, 197.8298
137.6282, 195.9465
138.1104, 194.0782
138.5925, 191.0533
139.0746, 185.1535
139.5567, 179.4847
140.0388, 175.1863
140.5209, 172.3107
141.0031, 170.2110
141.4852, 168.1163
141.9673, 165.7324
142.4494, 164.2423
142.9315, 163.8066
143.4136, 163.9570
143.8958, 164.3997
144.3779, 165.0610
144.8600, 166.0440
145.3421, 167.5253
145.8242, 169.6393
146.3063, 172.1006
146.7885, 174.5763
147.2706, 177.5056
147.7527, 181.5203
148.2348, 186.9158
148.7169, 193.2292
149.1990, 199.6653
149.6812, 206.1614
150.1633, 212.9455
150.6454, 220.8468
151.1275, 229.2695
151.6096, 236.2906
152.0917, 241.4608
152.5739, 244.3500
153.0560, 245.2722
153.5381, 244.2659
154.0202, 241.1711
154.5023, 235.4893
154.9844, 227.1847
155.4665, 217.8016
155.9487, 206.6999
156.4308, 195.4110
156.9129, 185.0790
157.3950, 175.9570
157.8771, 167.9251
158.3592, 160.7457
158.8414, 154.3819
159.3235, 149.1600
159.8056, 145.4605
160.2877, 142.6052
160.7698, 139.9879
161.2519, 137.3477
161.7341, 134.8938
162.2162, 133.2931
162.6983, 133.2238
163.1804, 133.1775
163.6625, 133.3057
164.1446, 133.2324
164.6268, 132.3810
165.1089, 130.3657
165.5910, 127.4706
166.0731, 125.4996
166.5552, 125.4468
167.0373, 125.2279
167.5195, 124.0982
168.0016, 122.4945
168.4837, 121.3166
168.9658, 121.1861
169.4479, 122.0372
169.9300, 122.7471
170.4122, 123.1279
170.8943, 123.5752
171.3764, 124.1859
171.8585, 124.9886
172.3406, 126.1112
172.8227, 127.7788
173.3049, 129.8875
173.7870, 131.5513
174.2691, 132.4067
174.7512, 133.0829
175.2333, 134.1079
175.7154, 135.5117
176.1976, 136.9503
176.6797, 138.2325
177.1618, 139.3549
177.6439, 140.2564
178.1260, 141.1091
178.6081, 141.6677
179.0903, 141.5162
179.5724, 140.5285
180.0545, 139.1777
180.5366, 137.4629
181.0187, 135.6308
181.5008, 134.1165
181.9830, 133.1928
182.4651, 132.7204
182.9472, 132.2747
183.4293, 131.8672
183.9114, 131.4750
184.3935, 130.7292
184.8757, 130.0051
185.3578, 129.9861
185.8399, 131.3098
186.3220, 133.8233
186.8041, 135.8299
187.2862, 136.7051
187.7684, 137.7112
188.2505, 139.1296
188.7326, 140.9537
189.2147, 143.1763
189.6968, 145.9031
190.1789, 149.1938
190.6611, 151.5827
191.1432, 152.4312
191.6253, 153.0201
192.1074, 153.6323
192.5895, 154.3081
193.0716, 155.0620
193.5538, 155.9772
194.0359, 157.1900
194.5180, 157.3395
195.0001, 155.9510
195.4822, 154.2072
195.9643, 152.5201
196.4465, 150.9651
196.9286, 149.4871
197.4107, 147.9976
197.8928, 146.4637
198.3749, 145.5213
198.8570, 145.3060
199.3392, 145.5079
199.8213, 145.9660
200.3034, 146.6579
200.7855, 147.5746
201.2676, 148.6896
201.7497, 150.0395
202.2319, 151.7750
202.7140, 154.3021
203.1961, 156.9904
203.6782, 159.1602
204.1603, 160.7268
204.6424, 162.2807
205.1246, 164.3613
205.6067, 166.9020
206.0888, 169.6075
206.5709, 172.1021
207.0530, 174.8559
207.5351, 178.6726
208.0173, 183.8407
208.4994, 189.2586
208.9815, 193.7357
209.4636, 197.7854
209.9457, 202.5705
210.4278, 208.7539
210.9100, 215.9493
211.3921, 223.3466
211.8742, 230.8554
212.3563, 238.6938
212.8384, 246.8730
213.3205, 255.4212
213.8027, 264.4993
214.2848, 274.4415
214.7669, 284.9595
215.2490, 294.9517
215.7311, 304.8521
216.2132, 313.4212
216.6954, 320.3781
217.1775, 325.8741
217.6596, 330.2489
218.1417, 333.8453
218.6238, 336.4966
219.1059, 337.0850
219.5881, 334.7032
220.0702, 331.0771
220.5523, 326.4737
221.0344, 321.1323
221.5165, 315.3456
221.9986, 309.3505
222.4808, 303.1022
222.9629, 296.1459
223.4450, 287.9537
223.9271, 279.5900
224.4092, 270.8709
224.8913, 262.1396
225.3735, 253.9315
225.8556, 246.5584
226.3377, 240.0164
226.8198, 233.7690
227.3019, 227.6762
227.7840, 222.0887
228.2662, 217.1822
228.7483, 212.8425
229.2304, 208.9124
229.7125, 205.2670
230.1946, 201.9167
230.6767, 199.0895
231.1589, 196.7657
231.6410, 194.9262
232.1231, 193.8418
232.6052, 193.2323
233.0873, 192.5784
233.5694, 191.5593
234.0516, 190.2371
234.5337, 189.0617
235.0158, 187.9917
235.4979, 187.0701
235.9800, 186.3640
236.4621, 185.8201
236.9443, 185.3903
237.4264, 185.1262
237.9085, 184.8738
238.3906, 183.8978
238.8727, 181.7159
239.3548, 179.5210
239.8370, 177.7319
240.3191, 176.2391
240.8012, 174.7939
241.2833, 173.2853
241.7654, 171.7311
242.2475, 170.2104
242.7297, 168.9873
243.2118, 167.3971
243.6939, 164.8953
244.1760, 161.7607
244.6581, 158.7598
245.1402, 156.0639
245.6224, 153.8911
246.1045, 152.6279
246.5866, 152.4871
247.0687, 152.5335
247.5508, 152.2221
248.0329, 151.6951
248.5151, 151.5069
248.9972, 152.0002
249.4793, 152.7290
249.9614, 153.0332
250.4435, 152.8744
250.9256, 152.6156
251.4078, 152.3042
251.8899, 152.0141
252.3720, 152.0879
252.8541, 152.7281
253.3362, 153.6412
253.8183, 154.2661
254.3005, 154.5994
254.7826, 155.5496
255.2647, 158.2277
255.7468, 162.2039
256.2289, 165.2239
256.7110, 166.4839
257.1931, 167.2002
257.6753, 168.2141
258.1574, 169.5447
258.6395, 171.3219
259.1216, 173.8015
259.6037, 176.8610
260.0858, 179.8997
260.5680, 183.0502
261.0501, 185.8797
261.5322, 187.9956
262.0143, 189.5975
262.4964, 191.2892
262.9785, 193.6779
263.4607, 196.5670
263.9428, 198.8826
264.4249, 200.6495
264.9070, 201.6857
265.3891, 201.9180
265.8712, 201.4793
266.3534, 200.6517
266.8355, 199.7040
267.3176, 198.4942
267.7997, 196.3410
268.2818, 192.8317
268.7639, 188.9058
269.2461, 184.9648
269.7282, 180.8949
270.2103, 176.4743
270.6924, 171.5104
271.1745, 166.2042
271.6566, 161.2831
272.1388, 156.9253
272.6209, 152.7298
273.1030, 148.8841
273.5851, 144.9992
274.0672, 140.4971
274.5493, 135.0030
275.0315, 129.1873
275.5136, 124.8032
275.9957, 122.4845
276.4778, 120.4806
276.9599, 118.7285
277.4420, 116.9459
277.9242, 114.7808
278.4063, 112.1049
278.8884, 109.2805
279.3705, 106.9804
279.8526, 105.4665
280.3347, 103.9668
280.8169, 102.0230
281.2990, 100.2954
281.7811, 99.44698
282.2632, 99.57290
282.7453, 100.0502
283.2274, 99.93019
283.7096, 98.87911
284.1917, 98.05621
284.6738, 97.78780
285.1559, 97.49305
285.6380, 96.66623
286.1201, 95.35158
286.6023, 94.09554
287.0844, 93.53393
287.5665, 93.81180
288.0486, 94.25382
288.5307, 95.22132
289.0128, 96.01827
289.4950, 96.27195
289.9771, 96.03613
290.4592, 95.57973
290.9413, 95.07433
291.4234, 94.47373
291.9055, 94.45401
292.3877, 95.53139
292.8698, 96.66422
293.3519, 97.68527
293.8340, 98.50054
294.3161, 98.96525
294.7982, 98.93149
295.2804, 98.45748
295.7625, 98.29884
296.2446, 98.83121
296.7267, 99.29145
297.2088, 99.41982
297.6909, 99.40923
298.1731, 99.53921
298.6552, 99.96000
299.1373, 100.6388
299.6194, 101.4628
300.1015, 102.9192
300.5836, 103.8996
301.0658, 104.1943
301.5479, 104.0186
302.0300, 103.5292
302.5121, 102.7985
302.9942, 101.9478
303.4763, 101.2309
303.9585, 100.9270
304.4406, 100.3255
304.9227, 99.36527
305.4048, 98.16943
305.8869, 96.70272
306.3690, 95.01575
306.8512, 93.37785
307.3333, 92.19668
307.8154, 91.74906
308.2975, 91.03499
308.7796, 89.82109
309.2617, 88.57104
309.7439, 87.52457
310.2260, 86.71553
310.7081, 86.09588
311.1902, 85.64401
311.6723, 85.39014
312.1544, 85.05638
312.6366, 84.58557
313.1187, 84.10249
313.6008, 83.59184
314.0829, 83.10354
314.5650, 82.75425
315.0471, 82.65121
315.5293, 82.76429
316.0114, 82.69329
316.4935, 82.39661
316.9756, 81.96024
317.4577, 81.21849
317.9398, 80.38503
318.4220, 79.78642
318.9041, 79.59512
319.3862, 79.68810
319.8683, 79.67505
320.3504, 79.45423
320.8326, 79.24627
321.3147, 78.97069
321.7968, 78.75668
322.2789, 78.82971
322.7610, 79.23473
323.2431, 79.67366
323.7253, 79.62405
324.2074, 78.82387
324.6895, 78.00850
325.1716, 76.76536
325.6537, 75.79819
326.1358, 75.86872
326.6180, 76.88919
327.1001, 77.89597
327.5822, 77.74460
328.0643, 76.03932
328.5464, 75.22797
329.0285, 76.28355
329.5107, 77.17797
329.9928, 76.84567
330.4749, 75.60152
330.9570, 74.42477
331.4391, 74.06191
331.9212, 74.45114
332.4034, 74.67577
332.8855, 74.34290
333.3676, 74.27478
333.8497, 74.83275
334.3318, 75.70103
334.8139, 76.46375
335.2961, 76.91220
335.7782, 77.09068
336.2603, 77.10892
336.7424, 76.88708
337.2245, 76.60667
337.7066, 76.13696
338.1888, 75.69935
338.6709, 75.44766
339.1530, 75.43710
339.6351, 75.69011
340.1172, 76.33240
340.5993, 77.73167
341.0815, 78.55905
341.5636, 78.48679
342.0457, 78.19583
342.5278, 77.99460
343.0099, 77.92467
343.4920, 77.92026
343.9742, 77.97123
344.4563, 78.10002
344.9384, 77.86649
345.4205, 76.63907
345.9026, 75.65682
346.3847, 75.33852
346.8669, 75.49317
347.3490, 75.77219
347.8311, 75.98554
348.3132, 76.12621
348.7953, 76.19537
349.2774, 76.45605
349.7596, 76.17959
350.2417, 74.47668
350.7238, 72.60493
351.2059, 72.07398
351.6880, 73.37135
352.1701, 75.26205
352.6523, 75.51972
353.1344, 73.36685
353.6165, 71.96948
354.0986, 72.10039
354.5807, 72.70947
355.0628, 73.38187
355.5450, 74.00205
356.0271, 74.49170
356.5092, 74.70097
356.9913, 74.61267
357.4734, 74.71293
357.9555, 75.05920
358.4377, 75.55507
358.9198, 76.27110
359.4019, 77.09282
359.8840, 77.79647
360.3661, 78.23705
360.8482, 78.48046
361.3304, 78.72417
361.8125, 78.96333
362.2946, 79.21200
362.7767, 79.19109
363.2588, 79.30392
363.7409, 80.11390
364.2231, 81.87641
364.7052, 83.84869
365.1873, 85.09293
365.6694, 85.56135
366.1515, 85.76339
366.6336, 85.42472
367.1158, 85.17602
367.5979, 85.56084
368.0800, 86.56450
368.5621, 87.63200
369.0442, 88.22293
369.5263, 88.49448
370.0085, 89.20802
370.4906, 90.50613
370.9727, 92.11584
371.4548, 94.03712
371.9369, 96.10753
372.4190, 97.96640
372.9012, 99.28979
373.3833, 100.4385
373.8654, 102.0392
374.3475, 104.1584
374.8296, 106.1006
375.3117, 107.3633
375.7939, 108.3044
376.2760, 109.4729
376.7581, 110.9847
377.2402, 112.5544
377.7223, 113.9650
378.2044, 115.2558
378.6866, 116.6036
379.1687, 118.0858
379.6508, 119.6049
380.1329, 121.2429
380.6150, 123.0147
381.0971, 124.0994
381.5793, 123.6862
382.0614, 122.6591
382.5435, 122.2483
383.0256, 122.6035
383.5077, 123.2818
383.9898, 124.0628
384.4720, 124.8987
384.9541, 125.5302
385.4362, 125.5011
385.9183, 125.6693
386.4004, 126.6489
386.8825, 128.2819
387.3647, 130.0504
387.8468, 131.7294
388.3289, 133.3530
388.8110, 134.9893
389.2931, 136.5776
389.7752, 138.3156
390.2574, 140.2170
390.7395, 142.3025
391.2216, 144.5198
391.7037, 146.8662
392.1858, 149.5921
392.6679, 153.0368
393.1501, 157.4001
393.6322, 161.5359
394.1143, 165.2600
394.5964, 168.9647
395.0785, 172.7684
395.5606, 176.7150
396.0428, 180.7625
396.5249, 184.8737
397.0070, 189.1134
397.4891, 194.0182
397.9712, 200.3629
398.4533, 206.4048
398.9355, 211.7097
399.4176, 216.7450
399.8997, 221.9348
400.3818, 227.4344
400.8639, 233.3825
401.3460, 240.0047
401.8282, 247.4125
402.3103, 255.2150
402.7924, 263.1612
403.2745, 271.7048
403.7566, 281.1074
404.2387, 291.3288
404.7209, 302.2220
405.2030, 313.6364
405.6851, 325.6016
406.1672, 337.8589
406.6493, 350.3663
407.1314, 363.1718
407.6136, 376.9074
408.0957, 390.6308
408.5778, 403.4040
409.0599, 414.8623
409.5420, 425.1809
410.0241, 435.0385
410.5063, 444.8159
410.9884, 451.9051
411.4705, 455.6961
411.9526, 456.5726
412.4347, 454.6164
412.9168, 449.8784
413.3990, 442.4675
413.8811, 432.2770
414.3632, 419.4716
414.8453, 404.3000
415.3274, 385.9829
415.8095, 367.2159
416.2917, 349.2519
416.7738, 331.7681
417.2559, 314.2372
417.7380, 296.1406
418.2201, 278.7657
418.7022, 263.2806
419.1844, 249.6009
419.6665, 236.8750
420.1486, 224.7888
420.6307, 213.8018
421.1128, 204.7419
421.5949, 197.4885
422.0771, 190.5956
422.5592, 183.0798
423.0413, 175.8267
423.5234, 170.2253
424.0055, 166.4507
424.4876, 163.1336
424.9698, 159.1709
425.4519, 154.8267
425.9340, 151.5902
426.4161, 149.9534
426.8982, 148.8589
427.3803, 147.8852
427.8625, 147.1148
428.3446, 146.7012
428.8267, 146.6895
429.3088, 147.1354
429.7909, 148.2059
430.2730, 150.4312
430.7552, 152.0670
431.2373, 152.2118
431.7194, 152.4267
432.2015, 154.0314
432.6836, 156.9024
433.1657, 159.9527
433.6479, 162.2923
434.1300, 163.9903
434.6121, 166.0317
435.0942, 168.4353
435.5763, 171.1937
436.0584, 174.3817
436.5406, 177.8900
437.0227, 181.6585
437.5048, 185.6450
437.9869, 189.7735
438.4690, 193.8952
438.9511, 197.9151
439.4333, 202.2330
439.9154, 206.8807
440.3975, 211.8499
440.8796, 217.0480
441.3617, 222.5593
441.8438, 228.6060
442.3260, 235.3861
442.8081, 242.7514
443.2902, 249.9595
443.7723, 256.8645
444.2544, 264.0677
444.7365, 272.1260
445.2187, 280.4144
445.7008, 288.2859
446.1829, 295.5945
446.6650, 302.6894
447.1471, 309.7759
447.6292, 316.8434
448.1114, 323.9659
448.5935, 331.2087
449.0756, 338.3419
449.5577, 345.5688
450.0398, 352.6111
450.5219, 358.4662
451.0041, 362.4964
451.4862, 365.4691
451.9683, 368.1180
452.4504, 370.3904
452.9325, 371.9305
453.4146, 372.7225
453.8968, 372.5055
454.3789, 370.4606
454.8610, 366.3251
455.3431, 361.8123
455.8252, 357.5427
456.3073, 352.9666
456.7895, 347.5026
457.2716, 341.0691
457.7537, 333.7321
458.2358, 325.3656
458.7179, 315.9525
459.2000, 307.1983
459.6822, 299.5919
460.1643, 291.9549
460.6464, 283.7255
461.1285, 275.3329
461.6106, 267.4115
462.0927, 260.1977
462.5748, 253.5592
463.0569, 247.3138
463.5391, 241.6452
464.0212, 235.9738
464.5033, 230.0167
464.9854, 224.3302
465.4675, 219.3201
465.9496, 214.7910
466.4318, 210.1956
466.9139, 205.1035
467.3960, 199.7859
467.8781, 195.1722
468.3602, 191.6083
468.8423, 187.8010
469.3245, 182.9735
469.8066, 177.9776
470.2887, 173.5361
470.7708, 169.7456
471.2529, 166.1010
471.7350, 161.9439
472.2172, 157.5639
472.6993, 154.4086
473.1814, 153.1163
473.6635, 151.5343
474.1456, 147.7009
474.6277, 142.4591
475.1099, 137.6568
475.5920, 133.6659
476.0741, 130.1008
476.5562, 126.8392
477.0383, 123.8188
477.5204, 120.7395
478.0026, 117.4944
478.4847, 114.3017
478.9668, 111.4905
479.4489, 109.0913
479.9310, 106.9464
480.4131, 105.0945
480.8953, 103.4662
481.3774, 102.1622
481.8595, 101.0683
482.3416, 99.93285
482.8237, 98.63289
483.3058, 97.08139
483.7880, 94.93886
484.2701, 91.19697
484.7522, 88.33876
485.2343, 86.81445
485.7164, 85.88289
486.1985, 85.11881
486.6807, 84.38683
487.1628, 83.60992
487.6449, 82.67063
488.1270, 81.59483
488.6091, 80.79179
489.0912, 80.60352
489.5734, 80.12859
490.0555, 78.63243
490.5376, 76.95554
491.0197, 76.19009
491.5018, 76.67766
491.9839, 77.37659
492.4661, 77.15574
492.9482, 76.12128
493.4303, 75.17727
493.9124, 74.33397
494.3945, 73.81407
494.8766, 73.97463
495.3588, 74.60806
495.8409, 75.20181
496.3230, 75.78928
496.8051, 76.14879
497.2872, 75.94057
497.7693, 75.31295
498.2515, 74.84628
498.7336, 74.79807
499.2157, 74.87299
499.6978, 74.48862
500.1799, 73.31718
500.6620, 72.98958
501.1442, 74.35071
501.6263, 75.97019
502.1084, 76.96351
502.5905, 77.33019
503.0726, 77.32495
503.5547, 77.05543
504.0369, 76.68018
504.5190, 76.75461
505.0011, 77.56693
505.4832, 78.40105
505.9653, 79.09682
506.4474, 79.89074
506.9296, 80.99249
507.4117, 82.38425
507.8938, 83.86458
508.3759, 85.22557
508.8580, 86.53892
509.3401, 88.19069
509.8223, 90.28732
510.3044, 92.50014
510.7865, 94.79081
511.2686, 97.09505
511.7507, 99.32281
512.2328, 101.4526
512.7150, 103.6405
513.1971, 105.9414
513.6792, 108.3964
514.1613, 111.1600
514.6434, 114.2657
515.1255, 117.6505
515.6077, 121.3985
516.0898, 125.4097
516.5719, 129.1905
517.0540, 132.3811
517.5361, 135.7418
518.0182, 139.5384
518.5004, 143.7518
518.9825, 148.3025
519.4646, 153.1922
519.9467, 158.5373
520.4288, 164.4409
520.9109, 170.8539
521.3931, 178.3017
521.8752, 187.3875
522.3573, 196.7637
522.8394, 205.5664
523.3215, 214.4488
523.8036, 224.3664
524.2858, 235.6373
524.7679, 248.1020
525.2500, 261.4441
525.7321, 275.7510
526.2142, 290.4448
526.6964, 306.7230
527.1785, 321.9255
527.6606, 335.4048
528.1427, 346.8513
528.6248, 356.0501
529.1069, 363.6322
529.5891, 367.6817
530.0712, 364.8633
530.5533, 355.4411
531.0354, 343.8454
531.5175, 331.1071
531.9996, 316.9348
532.4818, 300.0436
532.9639, 280.7829
533.4460, 262.3659
533.9281, 245.2324
534.4102, 229.3887
534.8923, 214.4263
535.3745, 200.6294
535.8566, 188.6659
536.3387, 178.9686
536.8208, 171.0037
537.3029, 163.8050
537.7850, 157.2363
538.2672, 151.7343
538.7493, 148.0589
539.2314, 144.6956
539.7135, 140.5642
540.1956, 135.9799
540.6777, 131.9732
541.1599, 129.2266
541.6420, 127.1914
542.1241, 124.3751
542.6062, 120.3693
543.0883, 116.8603
543.5704, 114.8937
544.0526, 112.9225
544.5347, 109.6715
545.0168, 105.4060
545.4989, 101.6878
545.9810, 99.65568
546.4631, 98.44896
546.9453, 96.76072
547.4274, 94.60071
547.9095, 92.43076
548.3916, 90.45501
548.8737, 88.55605
549.3558, 86.34334
549.8380, 83.59521
550.3201, 81.83918
550.8022, 82.13674
551.2843, 82.95084
551.7664, 82.94097
552.2485, 82.26997
552.7307, 81.88322
553.2128, 82.33385
553.6949, 83.35450
554.1770, 84.19139
554.6591, 84.63637
555.1412, 85.27096
555.6234, 86.04354
556.1055, 87.03930
556.5876, 88.27135
557.0697, 89.77492
557.5518, 91.66194
558.0339, 94.11661
558.5161, 96.82571
558.9982, 99.01596
559.4803, 100.5825
559.9624, 102.2410
560.4445, 104.4314
560.9266, 106.5149
561.4088, 108.0026
561.8909, 108.8899
562.3730, 109.2223
562.8551, 108.7545
563.3372, 107.9242
563.8193, 106.9160
564.3015, 105.8742
564.7836, 105.5278
565.2657, 106.2986
565.7478, 107.6198
566.2299, 108.4342
566.7120, 108.3766
567.1942, 108.6996
567.6763, 109.6654
568.1584, 110.7602
568.6405, 111.5146
569.1226, 112.1721
569.6047, 113.3321
570.0869, 115.3074
570.5690, 117.8716
571.0511, 120.5060
571.5332, 123.1292
572.0153, 126.2256
572.4974, 129.9550
572.9796, 134.0841
573.4617, 138.5064
573.9438, 143.2347
574.4259, 148.3060
574.9080, 153.8486
575.3901, 159.5797
575.8723, 165.3617
576.3544, 171.1034
576.8365, 176.3928
577.3186, 181.1397
577.8007, 185.2820
578.2828, 188.6691
578.7650, 191.2542
579.2471, 193.4899
579.7292, 195.6424
580.2113, 197.1629
580.6934, 198.0235
581.1755, 198.0194
581.6577, 196.7559
582.1398, 194.1317
582.6219, 190.5419
583.1040, 186.5042
583.5861, 182.0268
584.0682, 177.0148
584.5504, 170.1722
585.0325, 164.3349
585.5146, 160.9774
585.9967, 158.8116
586.4788, 156.0412
586.9609, 152.1071
587.4431, 148.4191
587.9252, 146.3485
588.4073, 145.6372
588.8894, 145.3188
589.3715, 145.3054
589.8536, 145.6615
590.3358, 146.4762
590.8179, 147.7106
591.3000, 149.1563
591.7821, 151.0674
592.2642, 152.7518
592.7463, 153.6696
593.2285, 154.4301
593.7106, 155.9639
594.1927, 158.1818
594.6748, 160.0593
595.1569, 160.7949
595.6390, 160.4796
596.1212, 159.5833
596.6033, 158.0139
597.0854, 155.9775
597.5675, 153.7163
598.0496, 150.9050
598.5317, 147.2109
599.0139, 142.7172
599.4960, 137.8062
599.9781, 132.5619
600.4602, 127.2002
600.9423, 122.0747
601.4244, 117.1863
601.9066, 112.3362
602.3887, 107.1820
602.8708, 102.4206
603.3529, 99.43506
603.8350, 98.22151
604.3171, 96.32603
604.7993, 92.73575
605.2814, 88.98347
605.7635, 85.83591
606.2456, 83.28486
606.7277, 81.23202
607.2098, 79.63830
607.6920, 78.36900
608.1741, 77.31591
608.6562, 76.58785
609.1383, 75.46947
609.6204, 73.36958
610.1025, 71.56477
610.5847, 70.65479
611.0668, 70.19070
611.5489, 69.58678
612.0310, 68.67965
612.5131, 67.64316
612.9952, 66.58698
613.4774, 65.53361
613.9595, 64.51198
614.4416, 63.50725
614.9237, 62.68958
615.4058, 62.30457
615.8879, 62.12234
616.3701, 61.36364
616.8522, 59.65482
617.3343, 58.19465
617.8164, 57.10362
618.2985, 56.43793
618.7806, 56.55037
619.2628, 57.19664
619.7449, 57.53055
620.2270, 56.97906
620.7091, 55.87633
621.1912, 55.18836
621.6733, 55.07529
622.1555, 54.89880
622.6376, 54.58776
623.1197, 54.18744
623.6018, 53.65253
624.0839, 53.04867
624.5660, 52.51830
625.0482, 51.99703
625.5303, 51.76383
626.0124, 52.43197
626.4945, 53.66269
626.9766, 54.24773
627.4587, 53.88090
627.9409, 53.07079
628.4230, 52.20723
628.9051, 51.29895
629.3872, 50.64376
629.8693, 50.27525
630.3514, 50.07560
630.8336, 49.97280
631.3157, 50.05288
631.7978, 50.60540
632.2799, 51.52807
632.7620, 52.16527
633.2441, 51.83618
633.7263, 50.85345
634.2084, 50.55333
634.6905, 51.18050
635.1726, 51.48597
635.6547, 50.67070
636.1368, 49.78184
636.6190, 50.04203
637.1011, 51.35683
637.5832, 52.33284
638.0653, 52.41436
638.5474, 52.10065
639.0295, 51.67877
639.5117, 51.19841
639.9938, 50.70934
640.4759, 50.23034
640.9580, 49.88225
641.4401, 49.86034
641.9222, 50.22022
642.4044, 50.38484
642.8865, 50.16083
643.3686, 49.96124
643.8507, 49.79005
644.3328, 49.73098
644.8149, 49.95098
645.2971, 50.44735
645.7792, 50.88457
646.2613, 50.98661
646.7434, 50.82719
647.2255, 50.46228
647.7076, 49.87561
648.1898, 49.67245
648.6719, 50.30265
649.1540, 51.19793
649.6361, 51.30975
650.1182, 50.43811
650.6003, 49.87403
651.0825, 49.86787
651.5646, 50.04212
652.0467, 50.36855
652.5288, 50.67458
653.0109, 50.62307
653.4930, 50.11257
653.9752, 49.49802
654.4573, 49.29647
654.9394, 49.52207
655.4215, 49.53663
655.9036, 49.18528
656.3857, 48.92837
656.8679, 49.02236
657.3500, 49.30321
657.8321, 49.61786
658.3142, 49.95541
658.7963, 50.29420
659.2784, 50.76622
659.7606, 51.13955
660.2427, 51.07664
660.7248, 50.65348
661.2069, 50.22623
661.6890, 49.95873
662.1711, 49.79953
662.6533, 49.64684
663.1354, 49.45710
663.6175, 49.42718
664.0996, 49.91826
664.5817, 50.17091
665.0638, 49.60263
665.5460, 48.79126
666.0281, 48.61135
666.5102, 49.30244
666.9923, 50.08305
667.4744, 50.26189
667.9565, 50.03953
668.4387, 49.95447
668.9208, 50.04103
669.4029, 49.82719
669.8850, 48.87270
670.3671, 47.76563
670.8492, 47.82872
671.3314, 49.82199
671.8135, 50.96051
672.2956, 50.54083
672.7777, 49.91152
673.2598, 49.76642
673.7419, 49.91279
674.2241, 49.90141
674.7062, 49.57259
675.1883, 49.22461
675.6704, 49.26178
676.1525, 49.64165
676.6346, 49.95564
677.1168, 50.20528
677.5989, 50.34413
678.0810, 50.29544
678.5631, 50.15227
679.0452, 50.06139
679.5273, 50.00703
680.0095, 50.07493
680.4916, 50.30577
680.9737, 50.64811
681.4558, 51.25733
681.9379, 51.92483
682.4200, 52.08435
682.9022, 51.52053
683.3843, 50.84097
683.8664, 51.01001
684.3485, 52.11249
684.8306, 52.79887
685.3127, 52.97884
685.7949, 52.89448
686.2770, 52.53009
686.7591, 52.01480
687.2412, 51.37591
687.7233, 50.59507
688.2054, 50.13989
688.6876, 50.38295
689.1697, 50.92672
689.6518, 51.47618
690.1339, 51.96729
690.6160, 52.19884
691.0981, 52.08211
691.5803, 51.96963
692.0624, 52.44762
692.5445, 53.65649
693.0266, 54.22900
693.5087, 53.52896
693.9908, 53.04736
694.4730, 53.28285
694.9551, 53.84491
695.4372, 54.40760
695.9193, 54.90578
696.4014, 55.26457
696.8835, 55.33283
697.3657, 55.30648
697.8478, 55.45797
698.3299, 55.75921
698.8120, 56.09910
699.2941, 56.45715
699.7762, 56.65966
700.2584, 56.42047
700.7405, 55.67326
701.2226, 55.32657
701.7047, 55.70963
702.1868, 56.09996
702.6689, 56.39602
703.1511, 56.62890
703.6332, 56.85458
704.1153, 57.06374
704.5974, 57.16247
705.0795, 56.90069
705.5616, 56.65070
706.0438, 57.10594
706.5259, 58.15966
707.0080, 59.19188
707.4901, 60.07117
707.9722, 60.65726
708.4543, 60.69838
708.9365, 60.21391
709.4186, 60.23163
709.9007, 61.41945
710.3828, 62.19444
710.8649, 61.84512
711.3470, 61.34639
711.8292, 61.47084
712.3113, 62.24110
712.7934, 63.37417
713.2755, 64.88431
713.7576, 66.31483
714.2397, 66.84019
714.7219, 66.58608
715.2040, 66.43948
715.6861, 66.56288
716.1682, 66.84319
716.6503, 67.20078
717.1324, 67.63605
717.6146, 68.16901
718.0967, 69.00968
718.5788, 69.63934
719.0609, 69.79321
719.5430, 69.91479
720.0251, 70.31530
720.5073, 70.95174
720.9894, 71.70344
721.4715, 72.55359
721.9536, 73.22271
722.4357, 73.20005
722.9178, 72.61923
723.4000, 72.24669
723.8821, 72.15250
724.3642, 72.34347
724.8463, 73.02100
725.3284, 73.83254
725.8105, 73.74654
726.2927, 71.98819
726.7748, 71.30915
727.2569, 73.04150
727.7390, 74.68842
728.2211, 74.74453
728.7032, 73.80013
729.1854, 72.91090
729.6675, 72.43660
730.1496, 72.16746
730.6317, 71.92796
731.1138, 71.71661
731.5959, 71.57137
732.0781, 71.50751
732.5602, 71.27641
733.0423, 70.73518
733.5244, 70.04670
734.0065, 69.44247
734.4886, 68.93922
734.9708, 68.41779
735.4529, 67.72157
735.9350, 67.19343
736.4171, 67.05450
736.8992, 67.08537
737.3813, 67.15044
737.8635, 67.15603
738.3456, 66.82201
738.8277, 65.60985
739.3098, 64.25628
739.7919, 64.62111
740.2740, 66.55429
740.7562, 67.73842
741.2383, 67.55663
741.7204, 66.66866
742.2025, 65.47672
742.6846, 64.05291
743.1667, 63.22253
743.6489, 63.41930
744.1310, 63.55577
744.6131, 63.47610
745.0952, 63.32861
745.5773, 63.18739
746.0594, 63.07717
746.5416, 63.00910
747.0237, 62.97953
747.5058, 63.03899
747.9879, 63.42598
748.4700, 63.96562
748.9521, 63.91596
749.4343, 63.17536
749.9164, 62.36418
750.3985, 61.80241
750.8806, 61.44727
751.3627, 61.21293
751.8448, 61.18651
752.3270, 61.05503
752.8091, 60.56417
753.2912, 60.25931
753.7733, 60.55412
754.2554, 61.07005
754.7375, 61.28097
755.2197, 61.07964
755.7018, 60.80722
756.1839, 60.64539
756.6660, 60.61036
757.1481, 60.85978
757.6302, 61.30785
758.1124, 61.38914
758.5945, 60.87993
759.0766, 60.35064
759.5587, 60.50309
760.0408, 61.31321
760.5229, 61.63794
761.0051, 60.99447
761.4872, 60.59111
761.9693, 60.60142
762.4514, 60.87939
762.9335, 61.64196
763.4156, 62.60551
763.8978, 62.83174
764.3799, 61.46960
764.8620, 60.26082
765.3441, 61.19218
765.8262, 63.06072
766.3083, 63.46260
766.7905, 62.27475
767.2726, 61.10594
767.7547, 60.92810
768.2368, 61.40965
768.7189, 61.87427
769.2010, 62.46054
769.6832, 62.45910
770.1653, 61.17214
770.6474, 60.28159
771.1295, 60.89465
771.6116, 62.09137
772.0938, 62.74658
772.5759, 62.72031
773.0580, 62.48755
773.5401, 61.95641
774.0222, 61.53758
774.5043, 61.66881
774.9865, 62.13407
775.4686, 62.55928
775.9507, 62.81596
776.4328, 62.84216
776.9149, 62.50607
777.3970, 61.93809
777.8792, 61.74197
778.3613, 61.95762
778.8434, 62.37078
779.3255, 63.16370
779.8076, 63.78499
780.2897, 63.64593
780.7719, 62.91274
781.2540, 62.29957
781.7361, 61.72656
782.2182, 61.44607
782.7003, 61.83944
783.1824, 62.27851
783.6646, 62.07455
784.1467, 61.50130
784.6288, 61.40557
785.1109, 62.16535
785.5930, 63.03581
786.0751, 62.98372
786.5573, 62.26728
787.0394, 62.01283
787.5215, 62.29010
788.0036, 62.41391
788.4857, 62.05078
788.9678, 61.48981
789.4500, 61.09119
789.9321, 60.81689
790.4142, 61.01066
790.8963, 62.41939
791.3784, 63.31108
791.8605, 62.85718
792.3427, 62.09468
792.8248, 62.00367
793.3069, 62.52348
793.7890, 62.90130
794.2711, 62.77482
794.7532, 62.38118
795.2354, 61.87288
795.7175, 61.28557
796.1996, 60.60785
796.6817, 59.88065
797.1638, 59.41631
797.6459, 59.41039
798.1281, 59.75661
798.6102, 60.30746
799.0923, 61.23815
799.5744, 61.60222
800.0565, 61.04217
800.5386, 60.48571
801.0208, 60.43844
801.5029, 60.55310
801.9850, 60.32332
802.4671, 59.69641
802.9492, 59.51397
803.4313, 60.71476
803.9135, 61.68242
804.3956, 61.05258
804.8777, 59.74279
805.3598, 59.10454
805.8419, 59.32892
806.3240, 59.75378
806.8062, 59.92530
807.2883, 59.88883
807.7704, 59.69525
808.2525, 59.35234
808.7346, 58.92845
809.2167, 58.28613
809.6989, 58.34649
810.1810, 60.14242
810.6631, 62.74478
811.1452, 63.48822
811.6273, 61.18397
812.1094, 59.70934
812.5916, 59.55025
813.0737, 59.65951
813.5558, 59.77647
814.0379, 59.83256
814.5200, 59.77015
815.0021, 59.58352
815.4843, 59.32946
815.9664, 58.99599
816.4485, 58.65114
816.9306, 58.17046
817.4127, 57.76795
817.8948, 58.23746
818.3770, 59.65059
818.8591, 60.79251
819.3412, 60.62184
819.8233, 59.59269
820.3054, 59.24835
820.7875, 59.85973
821.2697, 59.85897
821.7518, 58.64385
822.2339, 57.60046
822.7160, 57.74701
823.1981, 58.48468
823.6802, 58.71836
824.1624, 58.29579
824.6445, 57.98134
825.1266, 57.94283
825.6087, 58.03251
826.0908, 58.40082
826.5729, 58.73392
827.0551, 58.55163
827.5372, 57.82368
828.0193, 56.95137
828.5014, 56.09248
828.9835, 55.45303
829.4656, 55.52909
829.9478, 56.16899
830.4299, 56.67588
830.9120, 56.92760
831.3941, 57.00567
831.8762, 56.97483
832.3583, 56.78885
832.8404, 56.22250
833.3225, 54.78695
833.8046, 54.41692
834.2867, 56.40021
834.7689, 57.76203
835.2510, 56.75397
835.7331, 54.99376
836.2152, 54.41124
836.6973, 55.15436
837.1794, 55.85509
837.6616, 55.92467
838.1437, 55.98615
838.6258, 56.60549
839.1079, 57.34958
839.5900, 57.62529
840.0721, 57.38822
840.5543, 56.85994
841.0364, 56.10254
841.5185, 55.48078
842.0006, 55.84696
842.4827, 56.99256
842.9648, 57.44518
843.4470, 57.01368
843.9291, 56.63398
844.4112, 56.79381
844.8933, 57.21800
845.3754, 57.44991
845.8575, 57.45427
846.3397, 57.49469
846.8218, 57.85810
847.3039, 57.85813
847.7860, 56.93518
848.2681, 55.94757
848.7502, 55.65602
849.2324, 55.96022
849.7145, 56.24020
850.1966, 56.25222
850.6787, 56.30738
851.1608, 56.87372
851.6429, 57.37429
852.1251, 56.88909
852.6072, 55.73758
853.0893, 54.99775
853.5714, 55.13477
854.0535, 55.76412
854.5356, 56.62716
855.0178, 57.58919
855.4999, 57.96449
855.9820, 57.74139
856.4641, 57.32484
856.9462, 56.72638
857.4283, 56.41039
857.9105, 56.93651
858.3926, 58.17033
858.8747, 59.05181
859.3568, 59.74449
859.8389, 59.78708
860.3210, 58.36898
860.8032, 57.14096
861.2853, 57.03730
861.7674, 57.61079
862.2495, 58.10211
862.7316, 58.37904
863.2137, 58.65109
863.6959, 59.28011
864.1780, 59.67165
864.6601, 59.03650
865.1422, 57.97917
865.6243, 57.52551
866.1064, 57.83075
866.5886, 58.37897
867.0707, 58.82956
867.5528, 59.21280
868.0349, 59.68168
868.5170, 60.16385
868.9991, 60.06842
869.4813, 59.29325
869.9634, 58.75719
870.4455, 58.98793
870.9276, 59.67495
871.4097, 60.26432
871.8918, 60.74634
872.3740, 61.22518
872.8561, 61.89600
873.3382, 62.25116
873.8203, 61.81902
874.3024, 61.29011
874.7845, 61.22618
875.2667, 61.55074
875.7488, 61.84514
876.2309, 61.93940
876.7130, 62.15274
877.1951, 62.79576
877.6772, 63.42988
878.1594, 63.66004
878.6415, 63.58270
879.1236, 63.36281
879.6057, 63.08103
880.0878, 63.05645
880.5699, 63.79652
881.0521, 64.87326
881.5342, 65.48001
882.0163, 65.71909
882.4984, 66.01786
882.9805, 66.47472
883.4626, 66.96683
883.9448, 67.42110
884.4269, 67.77963
884.9090, 67.74629
885.3911, 67.13151
885.8732, 67.29874
886.3553, 68.68523
886.8375, 69.99857
887.3196, 70.64527
887.8017, 70.91015
888.2838, 71.21874
888.7659, 71.58899
889.2480, 71.76846
889.7302, 71.28197
890.2123, 71.22721
890.6944, 72.33849
891.1765, 73.59100
891.6586, 74.09821
892.1407, 74.03377
892.6229, 74.00703
893.1050, 74.17606
893.5871, 74.63308
894.0692, 75.69942
894.5513, 76.89165
895.0334, 77.60033
895.5156, 77.96696
895.9977, 78.36989
896.4798, 78.92770
896.9619, 79.61499
897.4440, 80.46378
897.9261, 81.34005
898.4083, 81.81930
898.8904, 81.95044
899.3725, 82.40734
899.8546, 83.33987
900.3367, 83.96390
900.8188, 83.68528
901.3010, 83.13929
901.7831, 83.59895
902.2652, 85.25096
902.7473, 86.75749
903.2294, 88.19548
903.7115, 89.34284
904.1937, 89.68361
904.6758, 90.11375
905.1579, 91.61878
905.6400, 93.89068
906.1221, 95.61936
906.6042, 96.47851
907.0864, 97.09648
907.5685, 97.17162
908.0506, 97.49324
908.5327, 98.74723
909.0148, 100.5461
909.4969, 102.2078
909.9791, 103.5921
910.4612, 105.1936
910.9433, 107.7650
911.4254, 110.2860
911.9075, 111.2414
912.3896, 111.5032
912.8718, 112.8917
913.3539, 115.5171
913.8360, 118.3472
914.3181, 120.7947
914.8002, 123.1793
915.2823, 126.2451
915.7645, 129.7795
916.2466, 131.8743
916.7287, 132.3958
917.2108, 134.0643
917.6929, 137.8981
918.1750, 142.5184
918.6572, 146.6814
919.1393, 150.4246
919.6214, 153.9854
920.1035, 156.9714
920.5856, 160.7581
921.0677, 165.6054
921.5499, 171.0039
922.0320, 177.1696
922.5141, 183.5382
922.9962, 189.1372
923.4783, 193.8524
923.9604, 199.4968
924.4426, 206.6501
924.9247, 214.3744
925.4068, 222.0364
925.8889, 230.4263
926.3710, 240.5093
926.8531, 251.8839
927.3353, 263.0981
927.8174, 273.6064
928.2995, 284.6982
928.7816, 297.1203
929.2637, 310.6710
929.7458, 325.0678
930.2280, 340.5259
930.7101, 357.5959
931.1922, 376.4344
931.6743, 396.2291
932.1564, 416.2494
932.6385, 437.4989
933.1207, 461.8254
933.6028, 488.8674
934.0849, 517.2545
934.5670, 546.8538
935.0491, 578.5493
935.5313, 612.5374
936.0134, 649.0626
936.4955, 688.8029
936.9776, 731.5284
937.4597, 774.3125
937.9418, 816.3907
938.4240, 862.2727
938.9061, 912.9779
939.3882, 967.6855
939.8703, 1025.523
940.3524, 1087.687
940.8345, 1156.793
941.3167, 1233.066
941.7988, 1316.189
942.2809, 1404.623
942.7630, 1501.204
943.2451, 1608.051
943.7272, 1722.086
944.2094, 1841.343
944.6915, 1965.175
945.1736, 2093.610
945.6557, 2231.833
946.1378, 2360.545
946.6199, 2479.943
947.1021, 2580.376
947.5842, 2662.747
948.0663, 2717.300
948.5484, 2731.687
949.0305, 2703.391
949.5126, 2636.068
949.9948, 2525.844
950.4769, 2388.724
950.9590, 2229.742
951.4411, 2058.325
951.9232, 1884.300
952.4053, 1711.719
952.8875, 1546.819
953.3696, 1392.584
953.8517, 1250.794
954.3338, 1124.266
954.8159, 1012.190
955.2980, 913.3174
955.7802, 827.3553
956.2623, 751.6210
956.7444, 685.7532
957.2265, 628.3121
957.7086, 578.4333
958.1907, 535.1725
958.6729, 497.1476
959.1550, 464.3502
959.6371, 435.1127
960.1192, 409.6348
960.6013, 386.4446
961.0834, 364.9776
961.5656, 345.9732
962.0477, 330.4806
962.5298, 317.8285
963.0119, 305.7263
963.4940, 293.9946
963.9761, 283.1366
964.4583, 272.6474
964.9404, 263.7325
965.4225, 257.2733
965.9046, 252.1012
966.3867, 247.3164
966.8688, 242.8853
967.3510, 238.8652
967.8331, 234.9043
968.3152, 231.9496
968.7973, 230.7940
969.2794, 230.1180
969.7615, 229.2302
970.2437, 228.2729
970.7258, 227.1442
971.2079, 226.0308
971.6900, 226.3682
972.1721, 229.8683
972.6542, 233.5503
973.1364, 235.0225
973.6185, 236.0884
974.1006, 238.7215
974.5827, 242.7022
975.0648, 247.0454
975.5469, 251.4315
976.0291, 256.0351
976.5112, 261.1255
976.9933, 266.3987
977.4754, 270.9453
977.9575, 275.5219
978.4396, 282.2523
978.9218, 291.0358
979.4039, 299.6495
979.8860, 306.9961
980.3681, 314.3518
980.8502, 323.7955
981.3323, 334.5313
981.8145, 343.2845
982.2966, 350.3063
982.7787, 358.1481
983.2608, 367.3271
983.7429, 376.3587
984.2250, 384.2533
984.7072, 391.2931
985.1893, 398.2797
985.6714, 405.2482
986.1535, 410.4205
986.6356, 413.6792
987.1177, 415.8462
987.5999, 417.2116
988.0820, 417.4282
988.5641, 416.3167
989.0462, 413.7301
989.5283, 409.0403
990.0104, 401.6291
990.4926, 394.1271
990.9747, 387.2084
991.4568, 378.8899
991.9389, 367.6016
992.4210, 355.5735
992.9031, 345.1604
993.3853, 336.1052
993.8674, 326.4878
994.3495, 315.9012
994.8316, 305.4962
995.3137, 294.6504
995.7958, 284.7766
996.2780, 276.6360
996.7601, 269.6807
997.2422, 263.4463
997.7243, 257.8602
998.2064, 252.5596
998.6885, 247.1711
999.1707, 242.5880
999.6528, 239.3920
1000.135, 236.6940
1000.617, 234.1776
1001.099, 231.6728
1001.581, 228.7625
1002.063, 225.5177
1002.545, 223.1950
1003.028, 223.2097
1003.510, 222.9531
1003.992, 220.5888
1004.474, 217.6618
1004.956, 215.7385
1005.438, 214.3866
1005.920, 212.6311
1006.402, 210.1785
1006.885, 206.9443
1007.367, 202.7272
1007.849, 197.9090
1008.331, 192.3663
1008.813, 186.7829
1009.295, 182.3970
1009.777, 178.8552
1010.259, 174.6664
1010.741, 169.3790
1011.224, 164.0666
1011.706, 159.4366
1012.188, 155.5989
1012.670, 152.8534
1013.152, 150.9545
1013.634, 149.2890
1014.116, 147.8492
1014.598, 147.0483
1015.081, 147.0613
1015.563, 147.4552
1016.045, 147.8306
1016.527, 148.1631
1017.009, 148.2652
1017.491, 148.2518
1017.973, 148.5972
1018.455, 149.3906
1018.937, 150.9817
1019.420, 153.6195
1019.902, 156.0468
1020.384, 156.3554
1020.866, 155.0761
1021.348, 154.8062
1021.830, 155.5057
1022.312, 156.2007
1022.794, 156.7770
1023.276, 156.3535
1023.759, 154.3609
1024.241, 151.4374
1024.723, 148.6077
1025.205, 145.8144
1025.687, 142.1945
1026.169, 137.5693
1026.651, 133.6436
1027.133, 130.8020
1027.616, 128.2858
1028.098, 125.5818
1028.580, 123.0551
1029.062, 121.4215
1029.544, 120.6937
1030.026, 120.1846
1030.508, 119.8675
1030.990, 119.8708
1031.473, 120.2666
1031.955, 120.8708
1032.437, 121.5519
1032.919, 122.3889
1033.401, 123.5200
1033.883, 124.9304
1034.365, 126.7794
1034.847, 129.1360
1035.329, 131.7680
1035.812, 134.3933
1036.294, 137.7010
1036.776, 142.3376
1037.258, 147.7829
1037.740, 152.8975
1038.222, 157.4866
1038.704, 163.1818
1039.186, 170.2515
1039.668, 177.9518
1040.151, 185.8235
1040.633, 194.6450
1041.115, 205.1349
1041.597, 216.7485
1042.079, 228.3873
1042.561, 240.0821
1043.043, 251.7654
1043.525, 265.4052
1044.008, 276.1745
1044.490, 283.7578
1044.972, 287.7603
1045.454, 287.7996
1045.936, 284.1299
1046.418, 276.7889
1046.900, 265.5442
1047.382, 253.3357
1047.865, 240.6390
1048.347, 226.7009
1048.829, 209.9906
1049.311, 193.3582
1049.793, 178.1458
1050.275, 164.4038
1050.757, 152.0965
1051.239, 141.2797
1051.721, 131.5159
1052.203, 122.4013
1052.686, 114.8420
1053.168, 109.9439
1053.650, 105.9187
1054.132, 101.5773
1054.614, 97.26653
1055.096, 93.63609
1055.578, 90.77959
1056.060, 88.41756
1056.543, 86.66018
1057.025, 85.13540
1057.507, 83.87867
1057.989, 82.65083
1058.471, 81.36349
1058.953, 79.95214
1059.435, 78.13799
1059.917, 75.94824
1060.400, 74.37430
1060.882, 73.88006
1061.364, 73.83872
1061.846, 74.18441
1062.328, 74.74260
1062.810, 75.71937
1063.292, 76.65126
1063.774, 76.59891
1064.256, 75.62532
1064.739, 75.29095
1065.221, 76.29700
1065.703, 77.76145
1066.185, 79.68668
1066.667, 81.56507
1067.149, 82.79017
1067.631, 83.88012
1068.113, 85.62109
1068.595, 88.03844
1069.078, 90.58150
1069.560, 93.10666
1070.042, 95.65329
1070.524, 98.22216
1071.006, 100.8493
1071.488, 103.4697
1071.970, 106.2471
1072.452, 109.1977
1072.935, 112.4994
1073.417, 116.8773
1073.899, 122.9592
1074.381, 129.0119
1074.863, 133.6392
1075.345, 138.5766
1075.827, 145.0652
1076.309, 152.5028
1076.792, 160.5331
1077.274, 168.7246
1077.756, 175.7890
1078.238, 180.9392
1078.720, 186.8553
1079.202, 196.1471
1079.684, 205.0024
1080.166, 211.5295
1080.648, 215.9969
1081.130, 218.8350
1081.613, 220.0381
1082.095, 219.5920
1082.577, 217.5512
1083.059, 213.2592
1083.541, 205.1735
1084.023, 196.2106
1084.505, 188.0441
1084.987, 179.7700
1085.469, 170.2392
1085.952, 159.8784
1086.434, 149.6978
1086.916, 139.9187
1087.398, 131.0376
1087.880, 123.4438
1088.362, 116.5595
1088.844, 110.4478
1089.326, 104.6043
1089.809, 98.47224
1090.291, 92.37696
1090.773, 86.77608
1091.255, 81.79452
1091.737, 77.96595
1092.219, 76.33697
1092.701, 74.66550
1093.183, 71.69347
1093.666, 68.75919
1094.148, 66.97003
1094.630, 65.77765
1095.112, 64.30541
1095.594, 62.49681
1096.076, 60.88326
1096.558, 59.55024
1097.040, 58.56306
1097.522, 58.27315
1098.005, 57.96175
1098.487, 57.09499
1098.969, 56.06075
1099.451, 55.18773
1099.933, 54.58241
1100.415, 54.51038
1100.897, 55.33463
1101.379, 55.78461
1101.861, 55.23305
1102.344, 54.62138
1102.826, 54.25819
1103.308, 54.09124
1103.790, 54.04288
1104.272, 54.13747
1104.754, 54.37768
1105.236, 54.66105
1105.718, 55.64476
1106.201, 58.42602
1106.683, 60.57937
1107.165, 60.66624
1107.647, 60.64108
1108.129, 62.26542
1108.611, 64.58411
1109.093, 65.68642
1109.575, 65.37040
1110.057, 65.16020
1110.540, 65.98074
1111.022, 65.73270
1111.504, 63.26087
1111.986, 60.63464
1112.468, 58.95102
1112.950, 57.63335
1113.432, 55.91432
1113.914, 53.81217
1114.396, 51.68723
1114.879, 49.43812
1115.361, 47.32401
1115.843, 45.00011
1116.325, 43.32896
1116.807, 42.97808
1117.289, 43.01834
1117.771, 42.74989
1118.253, 42.11788
1118.736, 40.79881
1119.218, 38.21450
1119.700, 36.91269
1120.182, 37.61581
1120.664, 38.05482
1121.146, 37.48951
1121.628, 36.91414
1122.110, 37.27650
1122.593, 37.83886
1123.075, 36.86219
1123.557, 34.16865
1124.039, 32.98227
1124.521, 33.72952
1125.003, 34.54507
1125.485, 35.32147
1125.967, 35.53160
1126.449, 34.75596
1126.932, 33.63334
1127.414, 33.01967
1127.896, 32.84277
1128.378, 32.59805
1128.860, 32.25394
1129.342, 32.15211
1129.824, 32.32378
1130.306, 32.82101
1130.788, 33.76387
1131.271, 34.24933
1131.753, 33.29531
1132.235, 33.63928
1132.717, 33.12249
1133.199, 32.45481
1133.681, 32.17181
1134.163, 30.58741
1134.645, 29.95554
1135.128, 30.78403
1135.610, 31.69001
1136.092, 31.80953
1136.574, 31.53615
1137.056, 31.50620
1137.538, 31.54331
1138.020, 30.80478
1138.502, 29.58372
1138.984, 29.27059
1139.467, 29.91634
1139.949, 30.64478
1140.431, 31.08633
1140.913, 31.31023
1141.395, 31.37641
1141.877, 31.27284
1142.359, 30.88937
1142.841, 30.36592
1143.323, 29.97562
1143.806, 29.71715
1144.288, 29.46380
1144.770, 29.22720
1145.252, 29.25692
1145.734, 29.73522
1146.216, 30.35787
1146.698, 30.96983
1147.180, 31.44053
1147.663, 31.61369
1148.145, 31.54439
1148.627, 31.20819
1149.109, 30.73478
1149.591, 30.46853
1150.073, 30.52628
1150.555, 30.65405
1151.037, 30.72062
1151.520, 30.78214
1152.002, 30.77929
1152.484, 30.87539
1152.966, 31.35060
1153.448, 31.97727
1153.930, 32.42614
1154.412, 32.61974
1154.894, 32.44997
1155.376, 31.54531
1155.859, 30.93899
1156.341, 31.23763
1156.823, 31.55535
1157.305, 31.42562
1157.787, 31.10674
1158.269, 30.79787
1158.751, 30.54854
1159.233, 30.50909
1159.715, 30.83484
1160.198, 30.80729
1160.680, 29.70240
1161.162, 29.25088
1161.644, 30.32696
1162.126, 31.39735
1162.608, 31.55590
1163.090, 31.24408
1163.572, 31.07839
1164.055, 31.05287
1164.537, 31.07939
1165.019, 31.23603
1165.501, 31.16159
1165.983, 30.71018
1166.465, 30.44980
1166.947, 30.65055
1167.429, 30.87994
1167.911, 30.71281
1168.394, 30.37757
1168.876, 30.56076
1169.358, 31.26515
1169.840, 31.24060
1170.322, 30.47426
1170.804, 29.94017
1171.286, 29.82188
1171.768, 29.91816
1172.250, 30.12902
1172.733, 30.43143
1173.215, 30.86577
1173.697, 31.27445
1174.179, 31.07977
1174.661, 30.53625
1175.143, 30.68809
1175.625, 31.36350
1176.107, 31.40494
1176.590, 30.58467
1177.072, 29.83877
1177.554, 29.78528
1178.036, 29.43253
1178.518, 29.77664
1179.000, 29.55900
1179.482, 29.80778
1179.964, 30.25870
1180.447, 30.56618
1180.929, 30.62479
1181.411, 30.23058
1181.893, 29.34837
1182.375, 28.66719
1182.857, 28.66251
1183.339, 28.85604
1183.821, 28.98600
1184.303, 29.19741
1184.786, 29.74055
1185.268, 30.35442
1185.750, 30.68369
1186.232, 30.72040
1186.714, 30.64359
1187.196, 30.47652
1187.678, 30.22733
1188.160, 29.82656
1188.642, 29.44136
1189.125, 29.07074
1189.607, 28.78751
1190.089, 28.63911
1190.571, 28.60729
1191.053, 28.67341
1191.535, 28.83664
1192.017, 29.02431
1192.499, 29.25420
1192.982, 29.48989
1193.464, 29.82945
1193.946, 29.77971
1194.428, 29.00760
1194.910, 28.33791
1195.392, 28.51198
1195.874, 29.26435
1196.356, 30.17536
1196.839, 31.16871
1197.321, 30.82291
1197.803, 29.27232
1198.285, 28.56658
1198.767, 28.97792
1199.249, 29.40130
1199.731, 29.34180
1200.213, 29.28398
1200.695, 29.82127
1201.177, 30.40725
1201.660, 29.86193
1202.142, 28.85365
1202.624, 28.79569
1203.106, 29.37895
1203.588, 29.83651
1204.070, 29.91025
1204.552, 29.21630
1205.034, 27.48478
1205.517, 26.16698
1205.999, 26.50390
1206.481, 27.35057
1206.963, 28.28718
1207.445, 28.97832
1207.927, 29.03327
1208.409, 28.66627
1208.891, 28.18219
1209.374, 27.66224
1209.856, 27.30952
1210.338, 27.22898
1210.820, 27.19320
1211.302, 27.28188
1211.784, 27.25610
1212.266, 26.79126
1212.748, 26.44716
1213.230, 26.76056
1213.713, 27.35998
1214.195, 27.48539
1214.677, 27.13039
1215.159, 27.05631
1215.641, 27.34476
1216.123, 27.55982
1216.605, 27.65689
1217.087, 27.72793
1217.569, 27.81648
1218.052, 27.80674
1218.534, 27.58396
1219.016, 27.25579
1219.498, 27.05261
1219.980, 26.93596
1220.462, 26.68577
1220.944, 26.36171
1221.426, 26.23296
1221.909, 26.30676
1222.391, 26.41921
1222.873, 26.50534
1223.355, 26.60136
1223.837, 26.77581
1224.319, 26.87358
1224.801, 26.63799
1225.283, 26.32832
1225.766, 26.23921
1226.248, 26.27530
1226.730, 26.23265
1227.212, 26.16028
1227.694, 26.39880
1228.176, 27.09420
1228.658, 27.24290
1229.140, 25.74857
1229.622, 24.77551
1230.104, 25.64271
1230.587, 26.42828
1231.069, 25.68969
1231.551, 24.60697
1232.033, 24.60326
1232.515, 25.36925
1232.997, 25.71926
1233.479, 25.55628
1233.961, 25.49588
1234.444, 25.59485
1234.926, 25.53109
1235.408, 25.18647
1235.890, 25.03358
1236.372, 25.34195
1236.854, 25.69701
1237.336, 25.62173
1237.818, 25.27613
1238.301, 24.94565
1238.783, 24.71415
1239.265, 25.16416
1239.747, 26.00624
1240.229, 25.92745
1240.711, 24.90810
1241.193, 24.14747
1241.675, 24.16939
1242.157, 24.26475
1242.640, 23.67946
1243.122, 23.17913
1243.604, 23.76294
1244.086, 24.42750
1244.568, 23.73962
1245.050, 22.74621
1245.532, 23.44546
1246.014, 25.40878
1246.496, 26.10236
1246.979, 24.63170
1247.461, 23.78644
1247.943, 24.83511
1248.425, 25.31386
1248.907, 24.20482
1249.389, 23.22718
1249.871, 23.20329
1250.353, 23.63667
1250.836, 24.03983
1251.318, 24.41430
1251.800, 24.86083
1252.282, 25.43262
1252.764, 25.05580
1253.246, 23.70570
1253.728, 22.92468
1254.210, 22.97581
1254.693, 23.49916
1255.175, 24.32067
1255.657, 24.87604
1256.139, 24.51535
1256.621, 23.88054
1257.103, 23.92077
1257.585, 24.34626
1258.067, 24.96689
1258.549, 25.46588
1259.031, 25.04858
1259.514, 24.03182
1259.996, 23.76991
1260.478, 24.65246
1260.960, 25.15832
1261.442, 24.25802
1261.924, 23.41632
1262.406, 22.89727
1262.888, 22.84635
1263.371, 23.81793
1263.853, 24.88153
1264.335, 25.08090
1264.817, 24.68557
1265.299, 24.30025
1265.781, 23.90668
1266.263, 23.83268
1266.745, 24.11801
1267.228, 24.61416
1267.710, 25.38160
1268.192, 25.68954
1268.674, 25.26895
1269.156, 24.48919
1269.638, 23.56872
1270.120, 22.90012
1270.602, 23.41164
1271.084, 24.45783
1271.567, 24.57815
1272.049, 24.11959
1272.531, 23.70716
1273.013, 23.44624
1273.495, 23.37951
1273.977, 23.49243
1274.459, 23.65238
1274.941, 23.81234
1275.423, 23.97164
1275.906, 24.06693
1276.388, 24.24671
1276.870, 24.74621
1277.352, 25.19221
1277.834, 25.40633
1278.316, 25.30244
1278.798, 24.50774
1279.280, 23.25142
1279.763, 23.24704
1280.245, 25.08353
1280.727, 25.56937
1281.209, 24.38895
1281.691, 23.79484
1282.173, 24.28828
1282.655, 24.82541
1283.137, 24.88440
1283.620, 24.73631
1284.102, 24.69669
1284.584, 24.55529
1285.066, 24.00211
##END=



