##NAMES=Krennerite
##RRUFFID=R060138
##IDEAL CHEMISTRY=Au_3_AgTe_8_
##LOCALITY=Strong mine, Cripple Creek, Teller County, Colorado, USA
##OWNER=RRUFF
##SOURCE=University of Arizona Mineral Museum
##DESCRIPTION=Gray metallic prismatic crystal, striated parallel to [001]
##STATUS=The identification of this mineral is confirmed by single-crystal X-ray diffraction and chemical analysis.
##URL=rruff.info/R060138
##MEASURED CHEMISTRY=(Au_0.87_Ag_0.13_)_Î£=1_Te_2.00_
89.78156, 0.0000000E+00
90.26367, 20.64094
90.74579, 20.73770
91.22791, 20.69541
91.71002, 20.52993
92.19214, 20.38055
92.67426, 20.50577
93.15638, 20.75513
93.63850, 20.71030
94.12061, 19.96727
94.60273, 18.90665
95.08485, 18.51006
95.56696, 18.85104
96.04908, 19.38303
96.53120, 19.39417
97.01331, 18.91387
97.49543, 18.54060
97.97755, 18.70865
98.45966, 19.36521
98.94178, 19.41893
99.42390, 18.63208
99.90602, 17.57683
100.3881, 17.47278
100.8703, 18.59583
101.3524, 19.69336
101.8345, 20.09892
102.3166, 19.65405
102.7987, 19.15558
103.2808, 18.57739
103.7630, 17.98490
104.2451, 17.71921
104.7272, 17.94858
105.2093, 18.27921
105.6914, 18.45218
106.1735, 18.36789
106.6557, 18.29799
107.1378, 18.33075
107.6199, 18.47559
108.1020, 18.38859
108.5841, 17.79766
109.0662, 17.11691
109.5484, 16.71027
110.0305, 16.71367
110.5126, 16.85071
110.9947, 17.09047
111.4768, 17.44516
111.9590, 17.85010
112.4411, 18.31662
112.9232, 18.82970
113.4053, 19.35605
113.8874, 19.83290
114.3695, 20.37294
114.8517, 21.08050
115.3338, 22.13885
115.8159, 22.92140
116.2980, 22.74319
116.7801, 22.14228
117.2622, 22.28389
117.7444, 24.11105
118.2265, 26.52312
118.7086, 28.74658
119.1907, 30.33599
119.6728, 32.17960
120.1549, 34.93949
120.6371, 38.44014
121.1192, 41.98508
121.6013, 44.96240
122.0834, 47.80709
122.5655, 50.99316
123.0476, 54.77488
123.5298, 58.85783
124.0119, 62.86336
124.4940, 66.82407
124.9761, 71.21950
125.4582, 76.71169
125.9404, 82.87796
126.4225, 88.84560
126.9046, 94.37199
127.3867, 99.46310
127.8688, 103.9776
128.3509, 107.8671
128.8331, 111.6516
129.3152, 116.0589
129.7973, 120.9549
130.2794, 125.5577
130.7615, 129.2887
131.2436, 132.4181
131.7258, 135.7504
132.2079, 139.2826
132.6900, 143.1146
133.1721, 147.5774
133.6542, 152.6606
134.1364, 157.6973
134.6185, 162.4225
135.1006, 166.8552
135.5827, 170.9174
136.0648, 174.5181
136.5469, 177.8837
137.0291, 181.6490
137.5112, 185.9063
137.9933, 190.0793
138.4754, 193.8909
138.9575, 197.3094
139.4396, 200.3796
139.9218, 203.1356
140.4039, 205.5317
140.8860, 207.1214
141.3681, 207.4737
141.8502, 207.7674
142.3323, 209.0467
142.8145, 211.9256
143.2966, 214.2374
143.7787, 215.4968
144.2608, 215.7329
144.7429, 216.1976
145.2250, 217.4252
145.7072, 218.4049
146.1893, 218.1323
146.6714, 215.8985
147.1535, 213.4661
147.6356, 211.0731
148.1178, 208.6848
148.5999, 206.5992
149.0820, 204.3872
149.5641, 202.6703
150.0462, 202.2273
150.5283, 205.0564
151.0105, 207.1731
151.4926, 205.4990
151.9747, 200.6729
152.4568, 197.2567
152.9389, 196.3604
153.4210, 196.6779
153.9032, 196.3695
154.3853, 195.4073
154.8674, 193.7200
155.3495, 191.0979
155.8316, 186.8033
156.3137, 183.2355
156.7959, 181.0231
157.2780, 179.7343
157.7601, 178.5750
158.2422, 177.3527
158.7243, 176.2041
159.2065, 175.1478
159.6886, 174.0263
160.1707, 173.2616
160.6528, 173.1366
161.1349, 173.4710
161.6170, 173.7961
162.0992, 174.0255
162.5813, 174.1405
163.0634, 174.1466
163.5455, 174.1922
164.0276, 173.9341
164.5097, 172.9506
164.9919, 171.4454
165.4740, 170.2118
165.9561, 169.7917
166.4382, 169.7472
166.9203, 168.7933
167.4024, 169.3782
167.8846, 169.5035
168.3667, 169.1941
168.8488, 167.1473
169.3309, 167.3439
169.8130, 166.6415
170.2952, 165.9021
170.7773, 166.4144
171.2594, 164.6204
171.7415, 165.1129
172.2236, 164.6926
172.7057, 164.6901
173.1879, 163.7829
173.6700, 163.1551
174.1521, 163.2224
174.6342, 163.7644
175.1163, 164.2453
175.5984, 164.3755
176.0806, 165.1145
176.5627, 165.3940
177.0448, 165.2386
177.5269, 163.3459
178.0090, 163.6966
178.4911, 163.1483
178.9733, 162.5630
179.4554, 163.2294
179.9375, 161.5895
180.4196, 162.2361
180.9017, 161.9699
181.3838, 160.6573
181.8660, 160.9135
182.3481, 161.3977
182.8302, 161.8946
183.3123, 162.2250
183.7944, 161.7790
184.2766, 160.4111
184.7587, 158.9629
185.2408, 158.3843
185.7229, 157.7643
186.2050, 158.4068
186.6871, 158.5897
187.1693, 158.3377
187.6514, 156.3484
188.1335, 156.6026
188.6156, 155.9577
189.0977, 155.2759
189.5798, 155.8458
190.0620, 154.1091
190.5441, 154.6591
191.0262, 155.9865
191.5083, 156.7835
191.9904, 156.7990
192.4725, 156.3030
192.9547, 155.5966
193.4368, 154.6618
193.9189, 153.9117
194.4010, 153.7622
194.8831, 154.1537
195.3652, 154.0435
195.8474, 153.2168
196.3295, 152.0993
196.8116, 151.5728
197.2937, 151.6887
197.7758, 151.9134
198.2579, 152.0331
198.7401, 152.0524
199.2222, 151.6452
199.7043, 150.5706
200.1864, 149.3054
200.6685, 149.1420
201.1507, 150.3215
201.6328, 151.4671
202.1149, 151.5963
202.5970, 150.5700
203.0791, 150.0072
203.5612, 150.2087
204.0434, 150.8293
204.5255, 150.8470
205.0076, 150.0874
205.4897, 149.3301
205.9718, 149.1474
206.4539, 149.6834
206.9361, 149.8992
207.4182, 149.5720
207.9003, 148.9274
208.3824, 148.7433
208.8645, 149.1907
209.3466, 149.6533
209.8288, 149.7298
210.3109, 149.3270
210.7930, 148.9375
211.2751, 148.5737
211.7572, 148.2617
212.2393, 148.1251
212.7215, 148.2575
213.2036, 148.3610
213.6857, 148.1654
214.1678, 147.4700
214.6499, 147.1907
215.1320, 147.5836
215.6142, 148.4362
216.0963, 148.7854
216.5784, 148.4476
217.0605, 147.9562
217.5426, 147.6162
218.0247, 147.4120
218.5069, 147.4271
218.9890, 147.7484
219.4711, 148.2995
219.9532, 148.7400
220.4353, 149.1122
220.9175, 149.3153
221.3996, 149.2417
221.8817, 148.7332
222.3638, 148.3701
222.8459, 148.2440
223.3280, 148.3094
223.8102, 148.3447
224.2923, 148.3401
224.7744, 148.3197
225.2565, 148.2579
225.7386, 148.0101
226.2207, 148.0927
226.7029, 148.7291
227.1850, 149.7592
227.6671, 150.2841
228.1492, 150.0161
228.6313, 149.6518
229.1134, 149.6259
229.5956, 150.1044
230.0777, 150.5473
230.5598, 150.8958
231.0419, 151.1779
231.5240, 151.5373
232.0062, 152.0040
232.4883, 152.5106
232.9704, 153.0769
233.4525, 153.9588
233.9346, 154.2943
234.4167, 153.6644
234.8989, 152.3925
235.3810, 152.0899
235.8631, 153.4546
236.3452, 154.8643
236.8273, 155.3357
237.3094, 154.2872
237.7916, 153.5631
238.2737, 153.3648
238.7558, 153.5683
239.2379, 153.6379
239.7200, 153.4374
240.2021, 153.2842
240.6843, 153.4166
241.1664, 154.2113
241.6485, 154.4343
242.1306, 153.7698
242.6127, 151.8329
243.0948, 153.0662
243.5770, 153.8400
244.0591, 154.1789
244.5412, 152.7805
245.0233, 153.6254
245.5054, 153.5714
245.9876, 153.4805
246.4697, 154.6412
246.9518, 155.0125
247.4339, 154.0086
247.9160, 152.7661
248.3981, 152.1699
248.8803, 152.4884
249.3624, 152.8111
249.8445, 153.1891
250.3266, 153.5404
250.8087, 153.4879
251.2908, 150.7665
251.7730, 152.4189
252.2551, 153.3820
252.7372, 153.6928
253.2193, 151.3976
253.7014, 152.4675
254.1835, 152.1888
254.6657, 151.8549
255.1478, 153.3983
255.6299, 151.9367
256.1120, 150.4433
256.5941, 152.0983
257.0763, 153.0639
257.5584, 153.3773
258.0405, 151.0847
258.5226, 152.1572
259.0047, 151.8811
259.4868, 151.5497
259.9690, 153.0957
260.4511, 150.7560
260.9332, 149.4807
261.4153, 148.5246
261.8974, 147.8764
262.3795, 147.5589
262.8617, 147.6566
263.3438, 147.8733
263.8259, 148.1167
264.3080, 148.3798
264.7901, 148.7579
265.2722, 149.3920
265.7544, 149.9734
266.2365, 149.9572
266.7186, 149.1118
267.2007, 148.3805
267.6828, 148.0843
268.1649, 148.2465
268.6471, 148.4007
269.1292, 148.5510
269.6113, 148.6931
270.0934, 148.8696
270.5755, 149.1497
271.0576, 149.1837
271.5398, 148.7379
272.0219, 147.8355
272.5040, 147.5442
272.9861, 148.0901
273.4682, 148.7636
273.9503, 148.7018
274.4325, 147.7250
274.9146, 147.0226
275.3967, 146.9337
275.8788, 147.3801
276.3610, 147.7641
276.8431, 148.0739
277.3252, 148.3455
277.8073, 148.7005
278.2894, 149.1794
278.7715, 149.2401
279.2537, 148.5824
279.7358, 147.4707
280.2179, 147.1348
280.7000, 147.7400
281.1821, 148.3797
281.6642, 148.2008
282.1464, 147.1975
282.6285, 146.4337
283.1106, 146.0878
283.5927, 146.0817
284.0748, 146.2637
284.5569, 146.6511
285.0391, 147.0661
285.5212, 147.4427
286.0033, 147.7676
286.4854, 147.8615
286.9675, 147.6248
287.4496, 147.2607
287.9318, 147.2404
288.4139, 147.5691
288.8960, 147.8403
289.3781, 147.7192
289.8602, 147.3022
290.3423, 147.1138
290.8245, 147.2572
291.3066, 147.4959
291.7887, 147.3660
292.2708, 146.9180
292.7529, 146.6226
293.2350, 146.9306
293.7172, 147.6070
294.1993, 147.8551
294.6814, 147.5769
295.1635, 147.1676
295.6456, 147.1764
296.1277, 147.5062
296.6099, 147.7457
297.0920, 147.7202
297.5741, 147.4696
298.0562, 146.9203
298.5383, 146.0390
299.0204, 145.3368
299.5026, 145.4901
299.9847, 146.2464
300.4668, 146.9475
300.9489, 147.4453
301.4311, 147.6770
301.9132, 147.3425
302.3953, 146.4675
302.8774, 145.7421
303.3595, 145.8690
303.8416, 146.5035
304.3238, 147.0499
304.8059, 147.3097
305.2880, 147.4000
305.7701, 147.3743
306.2522, 147.2507
306.7343, 147.1418
307.2165, 147.1423
307.6986, 147.1917
308.1807, 147.2146
308.6628, 147.1861
309.1449, 147.1336
309.6270, 147.1085
310.1092, 147.0825
310.5913, 146.9673
311.0734, 146.5307
311.5555, 146.0796
312.0376, 145.8929
312.5197, 146.0583
313.0019, 145.5915
313.4840, 146.0195
313.9661, 146.2560
314.4482, 146.3113
314.9303, 145.6427
315.4124, 145.9089
315.8946, 145.8004
316.3767, 145.6766
316.8588, 145.3242
317.3409, 145.3077
317.8230, 145.7976
318.3051, 146.1559
318.7873, 146.2440
319.2694, 146.1177
319.7515, 145.6906
320.2336, 144.9304
320.7157, 144.3423
321.1978, 144.0181
321.6800, 143.9554
322.1621, 144.1556
322.6442, 145.1747
323.1263, 145.8821
323.6084, 145.7776
324.0905, 144.9301
324.5727, 144.4634
325.0548, 144.9882
325.5369, 145.6586
326.0190, 145.9631
326.5012, 145.3258
326.9833, 144.9504
327.4654, 145.1012
327.9475, 145.6321
328.4296, 145.9536
328.9117, 146.0957
329.3939, 146.0000
329.8760, 145.5977
330.3581, 144.4996
330.8402, 143.8083
331.3223, 143.6362
331.8044, 143.8309
332.2866, 144.1363
332.7687, 144.8647
333.2508, 145.2231
333.7329, 144.8054
334.2150, 143.3141
334.6971, 142.5273
335.1793, 142.8043
335.6614, 143.3201
336.1435, 143.8323
336.6256, 144.1530
337.1077, 144.2925
337.5898, 143.7082
338.0720, 144.0586
338.5541, 144.0344
339.0362, 143.9948
339.5183, 144.4768
340.0004, 144.3918
340.4825, 144.1022
340.9647, 144.0073
341.4468, 144.3808
341.9289, 144.9802
342.4110, 144.8825
342.8931, 143.9774
343.3752, 143.0937
343.8574, 142.9297
344.3395, 143.4229
344.8216, 143.5967
345.3037, 143.2461
345.7858, 142.7469
346.2679, 142.8583
346.7501, 143.5384
347.2322, 144.1160
347.7143, 144.1057
348.1964, 143.7043
348.6785, 143.5864
349.1607, 143.8107
349.6428, 144.1118
350.1249, 144.2304
350.6070, 144.1885
351.0891, 144.0491
351.5713, 143.7069
352.0534, 143.3496
352.5355, 143.3946
353.0176, 143.8201
353.4997, 144.0608
353.9818, 143.2852
354.4640, 142.1233
354.9461, 141.5727
355.4282, 142.0044
355.9103, 142.2938
356.3924, 142.3918
356.8745, 140.9669
357.3567, 142.5112
357.8388, 143.3661
358.3209, 143.5687
358.8030, 141.1653
359.2851, 142.1270
359.7672, 141.7402
360.2494, 141.2980
360.7315, 142.7334
361.2136, 140.7091
361.6957, 142.1146
362.1778, 141.5995
362.6599, 141.5484
363.1421, 141.9525
363.6242, 142.2690
364.1063, 142.2982
364.5884, 141.0758
365.0705, 142.6843
365.5526, 143.6034
366.0348, 143.8702
366.5169, 141.5311
366.9990, 142.5570
367.4811, 142.2344
367.9632, 140.7499
368.4453, 142.3752
368.9275, 143.3112
369.4096, 143.5950
369.8917, 141.2727
370.3738, 142.3156
370.8559, 142.0098
371.3380, 141.6488
371.8202, 143.1653
372.3023, 141.2221
372.7844, 142.7088
373.2665, 142.8263
373.7487, 143.5705
374.2308, 142.8625
374.7129, 143.5311
375.1950, 143.6945
375.6771, 143.1338
376.1592, 142.7842
376.6414, 142.9923
377.1235, 143.6755
377.6056, 143.9836
378.0877, 143.8661
378.5698, 143.5537
379.0519, 143.1852
379.5341, 142.7632
380.0162, 142.4338
380.4983, 142.2139
380.9804, 142.1136
381.4625, 142.2454
381.9446, 142.6042
382.4268, 142.8729
382.9089, 142.7612
383.3910, 142.3967
383.8731, 142.2035
384.3552, 142.2319
384.8373, 142.3506
385.3195, 142.5176
385.8016, 142.6680
386.2837, 142.6104
386.7658, 141.9314
387.2479, 141.1588
387.7300, 141.0500
388.2122, 141.5840
388.6943, 142.1952
389.1764, 142.4596
389.6585, 142.5550
390.1406, 142.7263
390.6227, 143.2343
391.1049, 143.5582
391.5870, 143.0166
392.0691, 141.9466
392.5512, 141.3638
393.0333, 142.3732
393.5154, 143.5746
393.9976, 144.0169
394.4797, 143.3636
394.9618, 142.6680
395.4439, 142.1005
395.9260, 141.7292
396.4081, 141.6445
396.8903, 142.0344
397.3724, 142.5454
397.8545, 143.2364
398.3366, 144.1260
398.8188, 144.5600
399.3009, 144.1972
399.7830, 143.5598
400.2651, 142.9579
400.7472, 142.1848
401.2293, 141.7689
401.7115, 141.8880
402.1936, 142.3640
402.6757, 142.6649
403.1578, 142.7572
403.6399, 142.7283
404.1220, 142.5686
404.6042, 142.2233
405.0863, 142.0954
405.5684, 142.2903
406.0505, 142.5344
406.5326, 142.4075
407.0147, 141.8448
407.4969, 141.4146
407.9790, 141.3275
408.4611, 141.4758
408.9432, 141.3496
409.4253, 140.9143
409.9074, 140.5828
410.3896, 140.7547
410.8717, 141.3281
411.3538, 141.8726
411.8359, 142.3464
412.3180, 142.7030
412.8001, 142.8906
413.2823, 142.9039
413.7644, 142.7358
414.2465, 141.9507
414.7286, 141.1690
415.2107, 141.5423
415.6928, 143.1599
416.1750, 144.4200
416.6571, 143.5368
417.1392, 141.7131
417.6213, 140.5589
418.1034, 141.0824
418.5855, 141.9256
419.0677, 142.4764
419.5498, 142.7423
420.0319, 142.7278
420.5140, 141.9524
420.9961, 141.2419
421.4782, 141.2007
421.9604, 142.2812
422.4425, 143.0285
422.9246, 142.9105
423.4067, 142.3378
423.8889, 141.8701
424.3710, 141.5423
424.8531, 141.3610
425.3352, 141.3599
425.8173, 141.5376
426.2994, 141.7604
426.7816, 142.1773
427.2637, 142.4861
427.7458, 142.4500
428.2279, 141.8450
428.7100, 141.4457
429.1921, 141.3604
429.6743, 141.4707
430.1564, 141.5227
430.6385, 141.5205
431.1206, 141.4439
431.6027, 141.2753
432.0848, 141.0161
432.5670, 140.6404
433.0491, 140.0705
433.5312, 139.7044
434.0133, 140.1347
434.4954, 141.2365
434.9775, 142.1919
435.4597, 142.8649
435.9418, 143.2076
436.4239, 142.9220
436.9060, 142.1086
437.3881, 141.3937
437.8702, 141.2631
438.3524, 141.4436
438.8345, 141.5036
439.3166, 141.3606
439.7987, 141.3427
440.2808, 141.9201
440.7629, 142.7545
441.2451, 143.3135
441.7272, 143.1505
442.2093, 142.8705
442.6914, 142.8193
443.1735, 142.9571
443.6556, 142.9956
444.1378, 142.7591
444.6199, 142.4393
445.1020, 142.1253
445.5841, 141.6687
446.0662, 141.5382
446.5483, 142.2044
447.0305, 143.1542
447.5126, 143.5206
447.9947, 142.6909
448.4768, 142.0069
448.9590, 141.8213
449.4411, 142.1481
449.9232, 142.3038
450.4053, 142.2261
450.8874, 142.0650
451.3695, 141.8647
451.8517, 141.5340
452.3338, 141.6056
452.8159, 142.2726
453.2980, 143.1916
453.7801, 143.6640
454.2622, 143.6648
454.7444, 143.5242
455.2265, 143.3403
455.7086, 143.1300
456.1907, 142.9606
456.6728, 142.8287
457.1549, 142.7673
457.6371, 142.8438
458.1192, 143.0117
458.6013, 143.1700
459.0834, 143.3183
459.5655, 143.4008
460.0476, 143.2012
460.5298, 142.8558
461.0119, 142.7745
461.4940, 143.5756
461.9761, 144.4467
462.4582, 144.6581
462.9403, 144.1063
463.4225, 143.5952
463.9046, 143.6796
464.3867, 143.8931
464.8688, 143.7928
465.3509, 142.6173
465.8330, 141.8607
466.3152, 142.0992
466.7973, 143.0523
467.2794, 143.7021
467.7615, 143.7386
468.2436, 143.7140
468.7257, 143.8257
469.2079, 144.1289
469.6900, 144.3083
470.1721, 144.3461
470.6542, 144.2754
471.1363, 144.1006
471.6184, 143.7751
472.1006, 143.5320
472.5827, 143.4287
473.0648, 143.4237
473.5469, 143.4056
474.0291, 143.3768
474.5112, 143.3115
474.9933, 143.1679
475.4754, 142.9705
475.9575, 142.8252
476.4396, 142.7381
476.9218, 142.6866
477.4039, 142.6329
477.8860, 142.5959
478.3681, 142.6156
478.8502, 142.6732
479.3323, 142.8294
479.8145, 143.2673
480.2966, 143.8911
480.7787, 144.3353
481.2608, 144.2782
481.7429, 144.0758
482.2250, 143.9466
482.7072, 143.9090
483.1893, 143.9839
483.6714, 144.4000
484.1535, 144.8354
484.6356, 144.9675
485.1177, 144.4196
485.5999, 143.9445
486.0820, 143.6688
486.5641, 143.5585
487.0462, 143.4945
487.5283, 143.1101
488.0104, 144.2771
488.4926, 144.9846
488.9747, 145.2572
489.4568, 143.7925
489.9389, 144.5711
490.4210, 144.4507
490.9031, 144.2935
491.3853, 145.3879
491.8674, 144.1759
492.3495, 145.2504
492.8316, 145.4122
493.3137, 145.9918
493.7958, 145.6667
494.2780, 145.5565
494.7601, 145.5299
495.2422, 145.1791
495.7243, 144.7341
496.2064, 144.1914
496.6885, 143.7820
497.1707, 143.5987
497.6528, 143.6817
498.1349, 144.1346
498.6170, 145.4028
499.0992, 146.4370
499.5813, 146.4980
500.0634, 145.8881
500.5455, 145.3545
501.0276, 145.1285
501.5097, 145.0402
501.9919, 145.0553
502.4740, 145.1923
502.9561, 145.2818
503.4382, 145.2137
503.9203, 145.1654
504.4024, 145.2765
504.8846, 145.6968
505.3667, 145.9541
505.8488, 145.9403
506.3309, 145.7983
506.8130, 145.8677
507.2951, 146.2082
507.7773, 146.4857
508.2594, 146.4939
508.7415, 146.3219
509.2236, 146.5857
509.7057, 147.3256
510.1878, 147.9962
510.6700, 148.0591
511.1521, 147.6912
511.6342, 147.4361
512.1163, 147.4121
512.5984, 147.3997
513.0806, 146.9910
513.5627, 146.4281
514.0448, 146.2172
514.5269, 147.1018
515.0090, 147.9826
515.4911, 147.9863
515.9733, 147.2356
516.4554, 146.6140
516.9375, 146.5128
517.4196, 146.6021
517.9017, 146.7136
518.3839, 146.8822
518.8660, 146.9328
519.3481, 146.8546
519.8302, 146.6426
520.3123, 146.2503
520.7944, 145.3659
521.2766, 144.8914
521.7587, 145.1346
522.2408, 145.8681
522.7229, 146.1767
523.2050, 145.9671
523.6871, 145.6890
524.1693, 145.5204
524.6514, 145.4697
525.1335, 145.6869
525.6156, 146.2246
526.0977, 146.6952
526.5798, 146.7339
527.0620, 145.3573
527.5441, 146.3303
528.0262, 146.7731
528.5083, 146.7141
528.9904, 144.6505
529.4725, 144.5720
529.9547, 145.8423
530.4368, 146.5824
530.9189, 146.8207
531.4010, 145.0544
531.8831, 145.8766
532.3652, 145.6615
532.8474, 145.4038
533.3295, 146.5903
533.8116, 145.1156
534.2937, 146.2792
534.7758, 146.3897
535.2579, 146.9821
535.7401, 146.5309
536.2222, 146.4020
536.7043, 147.3171
537.1864, 147.6542
537.6685, 147.0827
538.1506, 145.5061
538.6328, 145.3405
539.1149, 145.7511
539.5970, 146.2154
540.0791, 146.4758
540.5612, 146.5354
541.0433, 146.2697
541.5255, 145.6302
542.0076, 145.1004
542.4897, 145.2043
542.9718, 145.7567
543.4539, 146.4353
543.9360, 147.3136
544.4182, 147.9871
544.9003, 147.9748
545.3824, 147.5066
545.8645, 147.0956
546.3466, 146.8694
546.8287, 146.8151
547.3109, 147.0128
547.7930, 147.4655
548.2751, 147.7944
548.7572, 147.7775
549.2393, 147.7519
549.7214, 147.9492
550.2036, 148.7345
550.6857, 148.8421
551.1678, 147.8412
551.6499, 146.6049
552.1320, 146.5052
552.6141, 147.7611
553.0963, 148.7275
553.5784, 149.0181
554.0605, 148.7840
554.5426, 148.2355
555.0247, 147.4006
555.5068, 146.7800
555.9890, 146.7875
556.4711, 147.1733
556.9532, 147.5606
557.4353, 147.9321
557.9174, 148.2020
558.3995, 148.2678
558.8817, 148.2100
559.3638, 148.0899
559.8459, 147.8252
560.3281, 147.6998
560.8102, 148.0945
561.2923, 148.6436
561.7744, 148.7685
562.2565, 147.6574
562.7386, 146.9002
563.2208, 147.0450
563.7029, 147.9153
564.1850, 148.2183
564.6671, 147.5885
565.1492, 147.0390
565.6313, 147.1473
566.1135, 147.9816
566.5956, 148.5249
567.0777, 148.7400
567.5598, 148.7810
568.0419, 148.7917
568.5240, 148.7651
569.0062, 148.6581
569.4883, 148.4445
569.9704, 148.1912
570.4525, 147.8497
570.9346, 147.5275
571.4167, 147.5116
571.8989, 148.2734
572.3810, 149.1030
572.8631, 149.5210
573.3452, 149.5576
573.8273, 149.4963
574.3094, 149.2762
574.7916, 149.1165
575.2737, 149.1737
575.7558, 149.5813
576.2379, 149.8157
576.7200, 149.7397
577.2021, 149.5885
577.6843, 149.6334
578.1664, 150.0967
578.6485, 150.0108
579.1306, 149.0328
579.6127, 147.7224
580.0948, 147.2278
580.5770, 147.5492
581.0591, 148.0256
581.5412, 148.4806
582.0233, 148.8705
582.5054, 149.0351
582.9875, 149.0038
583.4697, 149.0178
583.9518, 149.3543
584.4339, 149.7606
584.9160, 149.9108
585.3981, 149.7363
585.8802, 149.6462
586.3624, 150.1712
586.8445, 150.7146
587.3266, 150.7202
587.8087, 149.2832
588.2908, 148.3189
588.7729, 148.1146
589.2551, 148.4916
589.7372, 149.2718
590.2193, 150.9387
590.7014, 152.0386
591.1835, 152.0951
591.6656, 151.3000
592.1478, 150.5841
592.6299, 149.9499
593.1120, 149.4092
593.5941, 148.8431
594.0762, 148.3644
594.5583, 148.4873
595.0405, 149.2429
595.5226, 150.1541
596.0047, 151.0403
596.4868, 151.7371
596.9689, 151.9619
597.4510, 151.4938
597.9332, 150.9652
598.4153, 150.7471
598.8974, 150.7021
599.3795, 150.6147
599.8616, 150.4049
600.3438, 150.1782
600.8259, 149.9156
601.3080, 149.6480
601.7901, 149.4989
602.2722, 149.4595
602.7543, 149.5585
603.2365, 149.8576
603.7186, 150.3465
604.2007, 150.6608
604.6828, 150.7607
605.1649, 150.8452
605.6470, 151.1170
606.1292, 151.5164
606.6113, 151.8272
607.0934, 152.0263
607.5755, 152.0922
608.0576, 151.8493
608.5398, 151.4857
609.0219, 151.3537
609.5040, 151.8734
609.9861, 152.2226
610.4683, 151.7267
610.9504, 150.7478
611.4325, 150.0559
611.9146, 149.8857
612.3967, 150.0080
612.8788, 150.5379
613.3610, 151.4116
613.8431, 151.9135
614.3252, 151.9184
614.8073, 151.7570
615.2894, 151.5168
615.7715, 151.1792
616.2537, 151.1739
616.7358, 151.5491
617.2179, 152.0130
617.7000, 152.3047
618.1821, 152.4400
618.6642, 152.4423
619.1464, 152.2733
619.6285, 152.1213
620.1106, 152.2093
620.5927, 152.4390
621.0748, 152.6419
621.5569, 152.7468
622.0391, 152.8199
622.5212, 152.8860
623.0033, 152.9454
623.4854, 152.9972
623.9675, 153.1037
624.4496, 153.1379
624.9318, 153.0055
625.4139, 152.7155
625.8960, 152.6884
626.3781, 153.0454
626.8602, 153.3905
627.3423, 153.3367
627.8245, 152.9102
628.3066, 153.5370
628.7887, 154.0349
629.2708, 154.3414
629.7529, 154.4667
630.2350, 153.8681
630.7172, 154.2043
631.1993, 154.0788
631.6814, 154.8988
632.1635, 155.2862
632.6456, 155.4486
633.1277, 155.7251
633.6099, 156.5863
634.0920, 157.1939
634.5741, 157.1618
635.0562, 156.6427
635.5383, 156.2414
636.0204, 156.0186
636.5026, 155.8519
636.9847, 155.6678
637.4668, 155.4856
637.9489, 155.6810
638.4310, 156.3857
638.9131, 156.8912
639.3953, 156.5282
639.8774, 155.5220
640.3595, 154.9233
640.8416, 154.7896
641.3237, 154.8396
641.8058, 154.8800
642.2880, 154.9151
642.7701, 154.9648
643.2522, 155.0695
643.7343, 154.9273
644.2164, 155.5125
644.6985, 155.8326
645.1807, 155.9017
645.6628, 154.9686
646.1449, 155.3298
646.6270, 155.1722
647.1091, 154.9934
647.5912, 155.5367
648.0734, 154.7494
648.5555, 155.2812
649.0376, 155.2865
649.5197, 155.5327
650.0018, 155.2571
650.4839, 155.1427
650.9661, 155.5503
651.4482, 155.6689
651.9303, 155.5009
652.4124, 155.8220
652.8945, 155.6942
653.3766, 155.4007
653.8588, 154.9783
654.3409, 154.5658
654.8230, 154.2627
655.3051, 154.0690
655.7872, 154.0447
656.2693, 154.4857
656.7515, 154.9418
657.2336, 154.9388
657.7158, 154.0713
658.1979, 153.6595
658.6800, 153.9634
659.1621, 154.5793
659.6442, 154.8066
660.1263, 154.6402
660.6085, 154.3641
661.0906, 154.0232
661.5727, 153.6685
662.0548, 153.2998
662.5369, 152.9683
663.0190, 152.8707
663.5012, 153.4110
663.9833, 153.9946
664.4654, 154.0564
664.9475, 153.6670
665.4296, 153.4709
665.9117, 153.9507
666.3939, 154.4477
666.8760, 154.6212
667.3581, 154.4266
667.8402, 154.2077
668.3223, 153.8858
668.8044, 153.6641
669.2866, 153.7854
669.7687, 154.2751
670.2508, 154.3310
670.7329, 153.7787
671.2150, 153.3718
671.6971, 153.6225
672.1793, 154.8819
672.6614, 155.6110
673.1435, 155.8384
673.6256, 154.0612
674.1077, 154.8725
674.5898, 154.6464
675.0720, 154.3778
675.5541, 155.5535
676.0362, 154.0678
676.5183, 155.2205
677.0004, 155.3200
677.4825, 155.9016
677.9647, 155.4394
678.4468, 154.6760
678.9289, 155.0109
679.4110, 155.7919
679.8931, 155.9552
680.3752, 155.4619
680.8574, 154.9956
681.3395, 155.0231
681.8216, 155.3317
682.3037, 155.4800
682.7858, 155.4724
683.2679, 155.4360
683.7501, 155.3939
684.2322, 155.3985
684.7143, 155.5149
685.1964, 155.7707
685.6785, 155.9941
686.1606, 156.1546
686.6428, 156.2515
687.1249, 156.3034
687.6070, 156.4001
688.0891, 156.1871
688.5712, 155.4791
689.0533, 154.7629
689.5355, 154.7572
690.0176, 155.4242
690.4997, 155.8038
690.9818, 155.6598
691.4639, 155.3576
691.9460, 155.3183
692.4282, 155.5043
692.9103, 155.8552
693.3924, 156.7409
693.8745, 157.3197
694.3566, 156.7021
694.8387, 155.4133
695.3209, 154.6890
695.8030, 155.3707
696.2851, 156.0187
696.7672, 156.2966
697.2493, 156.2694
697.7314, 156.2516
698.2136, 156.2343
698.6957, 156.2611
699.1778, 156.4287
699.6599, 156.6532
700.1420, 156.4238
700.6241, 155.7717
701.1063, 155.3040
701.5884, 155.5493
702.0705, 156.1664
702.5526, 156.8646
703.0347, 157.6167
703.5168, 158.0710
703.9990, 157.8648
704.4811, 157.4272
704.9632, 157.0383
705.4453, 156.7306
705.9274, 156.4482
706.4095, 156.1010
706.8917, 155.8796
707.3738, 156.0415
707.8560, 156.6570
708.3381, 156.9158
708.8202, 156.6816
709.3023, 156.3510
709.7844, 156.4158
710.2665, 156.7888
710.7487, 157.2815
711.2308, 157.9629
711.7129, 158.4446
712.1950, 158.2615
712.6771, 157.7247
713.1592, 157.3026
713.6414, 157.2936
714.1235, 157.2362
714.6056, 156.8900
715.0877, 156.4546
715.5698, 156.3439
716.0519, 156.6370
716.5341, 157.0676
717.0162, 157.6565
717.4983, 158.2739
717.9804, 158.4384
718.4625, 158.1868
718.9446, 158.0308
719.4268, 158.3574
719.9089, 158.8263
720.3910, 159.0493
720.8731, 159.0349
721.3552, 158.8281
721.8373, 158.1036
722.3195, 157.5008
722.8016, 157.4872
723.2837, 158.0887
723.7658, 158.4092
724.2479, 158.2136
724.7300, 158.0073
725.2122, 158.0532
725.6943, 158.3572
726.1764, 158.4321
726.6585, 158.2302
727.1406, 158.1089
727.6227, 158.4593
728.1049, 159.0814
728.5870, 159.5636
729.0691, 159.8780
729.5512, 159.9010
730.0333, 159.1587
730.5154, 158.3054
730.9976, 158.0012
731.4797, 158.5230
731.9618, 159.0536
732.4439, 159.5652
732.9260, 159.9490
733.4081, 160.1049
733.8903, 159.9709
734.3724, 159.7771
734.8545, 159.4738
735.3366, 159.2620
735.8187, 159.1182
736.3008, 158.5343
736.7830, 159.8169
737.2651, 160.5692
737.7472, 160.8197
738.2293, 159.0657
738.7114, 159.9002
739.1935, 159.6973
739.6757, 159.4519
740.1578, 160.6506
740.6399, 159.1882
741.1220, 160.3640
741.6041, 160.4868
742.0862, 161.0915
742.5684, 160.6525
743.0505, 160.5358
743.5326, 161.4632
744.0147, 161.8125
744.4968, 161.2534
744.9789, 161.8887
745.4611, 160.3898
745.9432, 160.7637
746.4253, 161.9458
746.9074, 161.4391
747.3895, 160.1969
747.8716, 159.8855
748.3538, 159.7716
748.8359, 159.9533
749.3180, 160.3473
749.8001, 160.4979
750.2822, 160.0327
750.7643, 159.9891
751.2465, 160.9199
751.7286, 162.5012
752.2107, 163.0419
752.6928, 162.5308
753.1749, 161.8254
753.6570, 161.3307
754.1392, 160.9827
754.6213, 160.6625
755.1034, 160.3807
755.5855, 160.2220
756.0676, 160.2000
756.5498, 160.3359
757.0319, 160.7309
757.5140, 161.3924
757.9962, 161.8457
758.4783, 162.0127
758.9604, 162.0358
759.4425, 161.8672
759.9246, 161.5230
760.4067, 161.7830
760.8889, 162.7156
761.3710, 163.6144
761.8531, 164.0519
762.3352, 164.0630
762.8173, 163.4816
763.2994, 162.3385
763.7816, 161.5250
764.2637, 161.8794
764.7458, 162.5813
765.2279, 163.0703
765.7100, 163.2857
766.1921, 163.3113
766.6743, 162.9989
767.1564, 162.7015
767.6385, 162.5935
768.1206, 162.6579
768.6027, 161.8033
769.0848, 163.0956
769.5670, 163.8577
770.0491, 164.1180
770.5312, 162.3737
771.0133, 163.2178
771.4954, 163.0247
771.9775, 162.7890
772.4597, 163.9975
772.9418, 162.5447
773.4239, 163.7303
773.9060, 163.7529
774.3881, 163.6220
774.8702, 163.7836
775.3524, 163.9089
775.8345, 163.6238
776.3166, 162.8641
776.7987, 162.5370
777.2808, 162.7415
777.7629, 163.1718
778.2451, 163.5890
778.7272, 163.9731
779.2093, 164.3085
779.6914, 164.6161
780.1735, 164.7496
780.6556, 164.4217
781.1378, 163.9803
781.6199, 163.7715
782.1020, 164.1077
782.5841, 164.2289
783.0662, 163.9962
783.5483, 163.6998
784.0305, 163.6426
784.5126, 163.8271
784.9947, 164.1906
785.4768, 164.7619
785.9589, 165.3362
786.4410, 165.7567
786.9232, 165.9890
787.4053, 165.9335
787.8874, 165.4465
788.3695, 165.0023
788.8516, 164.7445
789.3337, 164.6892
789.8159, 164.8775
790.2980, 165.6416
790.7801, 166.0284
791.2622, 165.8894
791.7443, 165.5255
792.2264, 165.2575
792.7086, 165.0897
793.1907, 165.2427
793.6728, 165.8398
794.1549, 166.4162
794.6370, 166.4228
795.1191, 166.0668
795.6013, 165.6788
796.0834, 165.3379
796.5655, 165.0023
797.0476, 164.5566
797.5297, 164.1574
798.0118, 164.0014
798.4940, 164.2296
798.9761, 164.3580
799.4582, 164.3036
799.9403, 164.2282
800.4224, 164.3850
800.9045, 164.7331
801.3867, 165.0259
801.8688, 165.1978
802.3509, 165.3575
802.8330, 165.5972
803.3151, 165.8943
803.7972, 166.2306
804.2794, 166.7747
804.7615, 167.0688
805.2436, 166.8057
805.7258, 166.3648
806.2079, 166.1648
806.6900, 166.3061
807.1721, 166.2613
807.6542, 165.9179
808.1364, 165.5434
808.6185, 165.4382
809.1006, 165.5933
809.5827, 166.0981
810.0648, 167.1629
810.5469, 167.9214
811.0291, 167.2549
811.5112, 166.1341
811.9933, 165.6998
812.4754, 166.9301
812.9575, 167.6821
813.4396, 167.6587
813.9218, 167.3211
814.4039, 167.2239
814.8860, 167.3972
815.3681, 167.2801
815.8502, 166.7663
816.3323, 166.1584
816.8145, 165.6344
817.2966, 165.3173
817.7787, 165.5095
818.2608, 166.4738
818.7429, 167.2952
819.2250, 167.3917
819.7072, 167.2167
820.1893, 167.2417
820.6714, 167.8167
821.1535, 167.8006
821.6356, 166.8769
822.1177, 165.9264
822.5999, 166.0711
823.0820, 167.1252
823.5641, 167.8926
824.0462, 168.2454
824.5283, 168.2443
825.0104, 167.6169
825.4926, 166.8262
825.9747, 166.4109
826.4568, 166.5178
826.9389, 166.8331
827.4210, 167.6137
827.9031, 168.3183
828.3853, 168.5448
828.8674, 168.1598
829.3495, 167.9470
829.8316, 167.9438
830.3137, 167.9764
830.7958, 167.7995
831.2780, 167.5537
831.7601, 167.5658
832.2422, 167.8785
832.7243, 168.2699
833.2064, 168.7390
833.6885, 169.1344
834.1707, 169.3253
834.6528, 169.2469
835.1349, 169.1918
835.6170, 169.3057
836.0991, 169.1995
836.5812, 168.3787
837.0634, 166.9376
837.5455, 166.4268
838.0276, 166.8587
838.5097, 167.5142
838.9918, 167.9568
839.4739, 168.0172
839.9561, 168.4219
840.4382, 168.7221
840.9203, 168.9235
841.4024, 168.7300
841.8845, 169.0464
842.3666, 169.1584
842.8488, 169.2622
843.3309, 169.6503
843.8130, 169.5143
844.2951, 169.8979
844.7772, 170.0741
845.2593, 170.3452
845.7415, 168.7951
846.2236, 168.2773
846.7057, 168.0627
847.1878, 167.9887
847.6699, 167.9329
848.1520, 167.8116
848.6342, 167.6362
849.1163, 167.5170
849.5984, 167.4359
850.0805, 167.4492
850.5626, 167.5725
851.0447, 167.8018
851.5269, 168.2480
852.0090, 168.8576
852.4911, 169.1857
852.9732, 168.5842
853.4553, 168.0150
853.9374, 168.6272
854.4196, 169.9555
854.9017, 170.8558
855.3839, 170.6898
855.8660, 170.4014
856.3481, 170.0778
856.8302, 169.8012
857.3123, 169.7943
857.7944, 170.0820
858.2766, 170.3237
858.7587, 170.4407
859.2408, 170.4655
859.7229, 170.4991
860.2050, 170.4688
860.6871, 170.1973
861.1693, 169.3240
861.6514, 168.6873
862.1335, 168.8425
862.6156, 169.3118
863.0977, 169.4406
863.5798, 169.1002
864.0620, 168.7532
864.5441, 168.3701
865.0262, 168.1391
865.5083, 168.4813
865.9904, 169.1683
866.4725, 169.4602
866.9547, 169.1772
867.4368, 168.7870
867.9189, 168.4380
868.4010, 168.2439
868.8831, 168.3320
869.3652, 168.8754
869.8474, 169.3203
870.3295, 169.6862
870.8116, 169.9186
871.2937, 169.9568
871.7758, 169.8107
872.2579, 169.5527
872.7401, 169.1823
873.2222, 168.8405
873.7043, 168.6531
874.1864, 168.5399
874.6685, 168.4088
875.1506, 168.2504
875.6328, 168.1817
876.1149, 168.1205
876.5970, 168.2997
877.0791, 168.9794
877.5612, 170.0531
878.0433, 170.3230
878.5255, 169.7625
879.0076, 169.1169
879.4897, 168.8699
879.9718, 168.7631
880.4539, 168.3432
880.9360, 167.7341
881.4182, 167.3632
881.9003, 167.6090
882.3824, 167.9002
882.8645, 167.9711
883.3466, 167.9536
883.8287, 168.2482
884.3109, 168.9418
884.7930, 169.4707
885.2751, 169.6980
885.7572, 169.6637
886.2393, 169.3133
886.7214, 168.7575
887.2036, 168.2552
887.6857, 167.7531
888.1678, 167.5582
888.6499, 168.1143
889.1320, 168.9206
889.6141, 169.3071
890.0963, 169.1062
890.5784, 168.8855
891.0605, 168.6407
891.5426, 168.4785
892.0247, 168.6955
892.5068, 169.0878
892.9890, 168.8701
893.4711, 167.8434
893.9532, 167.1517
894.4353, 168.0969
894.9174, 169.3473
895.3995, 169.7592
895.8817, 168.9663
896.3638, 168.4599
896.8459, 168.2856
897.3280, 168.3089
897.8101, 168.4774
898.2922, 168.7770
898.7744, 169.1614
899.2565, 169.6194
899.7386, 170.0488
900.2207, 170.6304
900.7028, 170.9500
901.1849, 170.4237
901.6671, 169.2208
902.1492, 168.6348
902.6313, 169.1929
903.1134, 169.6873
903.5955, 169.8067
904.0776, 169.6558
904.5598, 169.4787
905.0419, 169.2875
905.5240, 169.1656
906.0062, 169.1790
906.4883, 169.2219
906.9704, 169.1292
907.4525, 169.0220
907.9346, 169.0949
908.4167, 169.9340
908.8989, 170.1200
909.3810, 169.0878
909.8631, 167.9297
910.3452, 168.2057
910.8273, 169.8744
911.3094, 170.0177
911.7916, 170.0566
912.2737, 169.9967
912.7558, 169.5419
913.2379, 169.5970
913.7200, 169.4477
914.2021, 169.2901
914.6843, 169.4169
915.1664, 169.8312
915.6485, 170.3146
916.1306, 170.0643
916.6127, 169.1424
917.0948, 169.0415
917.5770, 169.2538
918.0591, 169.3615
918.5412, 169.3705
919.0233, 168.9846
919.5054, 169.1086
919.9875, 169.0282
920.4697, 168.9395
920.9518, 169.1352
921.4339, 168.8067
921.9160, 168.9980
922.3981, 168.9817
922.8802, 167.7886
923.3624, 168.2250
923.8445, 168.7475
924.3266, 169.1541
924.8087, 169.4505
925.2908, 169.6367
925.7729, 169.7253
926.2551, 169.7267
926.7372, 169.5130
927.2193, 169.4616
927.7014, 169.7229
928.1835, 170.0387
928.6656, 170.1449
929.1478, 170.0438
929.6299, 170.1114
930.1120, 170.3802
930.5941, 170.5915
931.0762, 170.5908
931.5583, 170.3725
932.0405, 169.7283
932.5226, 168.6664
933.0047, 168.1441
933.4868, 168.9869
933.9689, 169.6634
934.4510, 169.6127
934.9332, 168.9627
935.4153, 168.1796
935.8974, 167.2857
936.3795, 166.9493
936.8616, 167.7793
937.3438, 168.9510
937.8259, 169.8378
938.3080, 170.4140
938.7901, 170.6098
939.2722, 169.9800
939.7543, 169.5501
940.2365, 169.4718
940.7186, 169.5851
941.2007, 169.7495
941.6828, 169.9458
942.1649, 169.8811
942.6470, 169.4816
943.1292, 169.1029
943.6113, 168.9382
944.0934, 169.0383
944.5755, 169.5929
945.0576, 170.7838
945.5397, 171.4326
946.0219, 171.3421
946.5040, 170.9052
946.9861, 170.1359
947.4682, 169.1707
947.9503, 169.0126
948.4324, 169.5723
948.9146, 170.1018
949.3967, 170.0889
949.8788, 169.9531
950.3609, 170.0922
950.8430, 170.3596
951.3251, 170.2642
951.8073, 169.3045
952.2894, 168.9280
952.7715, 169.5451
953.2536, 170.5198
953.7357, 170.8418
954.2179, 170.6112
954.7000, 170.1306
955.1821, 169.3725
955.6642, 168.8569
956.1464, 169.1956
956.6285, 169.7859
957.1106, 170.0661
957.5927, 169.9060
958.0748, 169.8111
958.5569, 169.7288
959.0391, 169.8519
959.5212, 170.4947
960.0033, 171.4060
960.4854, 171.8264
960.9675, 171.8054
961.4496, 171.6344
961.9318, 171.1882
962.4139, 170.9184
962.8960, 171.2937
963.3781, 171.9971
963.8602, 172.1157
964.3423, 171.4662
964.8245, 171.0085
965.3066, 170.9303
965.7887, 171.1286
966.2708, 171.5656
966.7529, 172.1428
967.2350, 172.7187
967.7172, 173.3712
968.1993, 173.6435
968.6814, 173.0127
969.1635, 172.2282
969.6456, 171.8089
970.1277, 171.7881
970.6099, 171.6951
971.0920, 171.5190
971.5741, 171.3876
972.0562, 171.2562
972.5383, 171.3047
973.0204, 172.0064
973.5026, 173.1474
973.9847, 173.8735
974.4668, 173.5327
974.9489, 173.2212
975.4310, 173.2692
975.9131, 173.4063
976.3953, 172.9371
976.8774, 171.9224
977.3595, 171.3231
977.8416, 171.3689
978.3237, 171.8154
978.8058, 172.9046
979.2880, 174.0229
979.7701, 174.4184
980.2522, 173.6338
980.7343, 173.3074
981.2164, 173.7098
981.6985, 174.1568
982.1807, 174.1159
982.6628, 173.7682
983.1449, 174.1407
983.6270, 175.0759
984.1091, 175.5946
984.5912, 174.5666
985.0734, 173.5446
985.5555, 173.4544
986.0376, 174.0297
986.5197, 174.5052
987.0018, 174.9350
987.4839, 175.0374
987.9661, 174.7070
988.4482, 174.2190
988.9303, 173.9054
989.4124, 173.7236
989.8945, 173.5983
990.3766, 173.5179
990.8588, 173.4968
991.3409, 173.2421
991.8230, 173.3684
992.3051, 174.5179
992.7872, 176.5909
993.2693, 177.0290
993.7515, 175.7711
994.2336, 174.6436
994.7157, 174.9101
995.1978, 175.5929
995.6799, 175.4758
996.1620, 174.8911
996.6442, 174.6176
997.1263, 174.9988
997.6084, 175.5829
998.0905, 176.5528
998.5726, 177.4037
999.0547, 177.2729
999.5369, 176.3653
1000.019, 176.0522
1000.501, 176.5208
1000.983, 177.0459
1001.465, 177.2430
1001.947, 177.1798
1002.430, 176.8235
1002.912, 176.1744
1003.394, 175.6303
1003.876, 175.1315
1004.358, 174.9572
1004.840, 175.3748
1005.322, 175.9806
1005.804, 175.9379
1006.287, 175.4472
1006.769, 174.9922
1007.251, 174.6847
1007.733, 174.5440
1008.215, 174.6765
1008.697, 174.9043
1009.179, 175.0643
1009.661, 175.1413
1010.143, 175.3350
1010.626, 175.6635
1011.108, 175.9599
1011.590, 176.0600
1012.072, 176.0864
1012.554, 176.2836
1013.036, 176.5868
1013.518, 176.4126
1014.000, 175.1621
1014.483, 174.3480
1014.965, 174.4470
1015.447, 175.0313
1015.929, 175.2378
1016.411, 175.1710
1016.893, 175.2247
1017.375, 175.5385
1017.857, 175.8475
1018.339, 175.9473
1018.822, 175.9992
1019.304, 176.1610
1019.786, 176.4589
1020.268, 176.6131
1020.750, 176.5793
1021.232, 176.6735
1021.714, 177.4276
1022.196, 178.2315
1022.679, 177.8688
1023.161, 176.7433
1023.643, 176.0186
1024.125, 176.5378
1024.607, 176.8911
1025.089, 176.7294
1025.571, 176.4363
1026.053, 176.5939
1026.535, 177.1416
1027.018, 177.6657
1027.500, 178.1304
1027.982, 178.3646
1028.464, 178.0805
1028.946, 177.6369
1029.428, 177.2138
1029.910, 176.8426
1030.392, 176.9352
1030.875, 177.6591
1031.357, 178.2054
1031.839, 178.1590
1032.321, 177.9749
1032.803, 178.6188
1033.285, 179.7209
1033.767, 180.5086
1034.249, 180.7903
1034.731, 180.6277
1035.214, 179.6681
1035.696, 178.6281
1036.178, 178.0132
1036.660, 177.8257
1037.142, 177.6593
1037.624, 177.5317
1038.106, 177.8461
1038.588, 179.7663
1039.071, 181.4241
1039.553, 181.0035
1040.035, 179.1277
1040.517, 178.0622
1040.999, 178.1897
1041.481, 178.3334
1041.963, 178.3104
1042.445, 178.2745
1042.927, 178.5349
1043.410, 178.8978
1043.892, 178.8895
1044.374, 178.3871
1044.856, 178.1646
1045.338, 179.0650
1045.820, 179.6855
1046.302, 179.2197
1046.784, 177.9789
1047.266, 177.6118
1047.749, 178.0618
1048.231, 178.7350
1048.713, 179.4983
1049.195, 180.2004
1049.677, 180.8869
1050.159, 181.3736
1050.641, 181.3286
1051.123, 180.3411
1051.606, 180.0680
1052.088, 180.7248
1052.570, 181.3195
1053.052, 180.8963
1053.534, 179.9711
1054.016, 179.4887
1054.498, 179.4000
1054.980, 179.3542
1055.463, 179.2903
1055.945, 179.1426
1056.427, 178.8245
1056.909, 178.4908
1057.391, 178.4174
1057.873, 178.5772
1058.355, 178.7256
1058.837, 178.8103
1059.319, 179.0561
1059.802, 180.0350
1060.284, 180.9131
1060.766, 180.9453
1061.248, 180.1644
1061.730, 179.3943
1062.212, 178.5433
1062.694, 178.2435
1063.176, 178.9494
1063.658, 179.9423
1064.141, 180.2080
1064.623, 180.0197
1065.105, 179.8072
1065.587, 179.5190
1066.069, 179.6186
1066.551, 180.3644
1067.033, 181.1282
1067.515, 181.4965
1067.998, 181.5012
1068.480, 181.0981
1068.962, 180.4019
1069.444, 180.0766
1069.926, 180.9675
1070.408, 181.7847
1070.890, 181.7930
1071.372, 181.3993
1071.854, 181.1582
1072.337, 181.0652
1072.819, 181.2297
1073.301, 181.6738
1073.783, 182.2812
1074.265, 183.4125
1074.747, 184.3120
1075.229, 183.9587
1075.711, 182.4101
1076.193, 181.4214
1076.676, 181.3018
1077.158, 181.2684
1077.640, 181.1368
1078.122, 180.9521
1078.604, 180.6904
1079.086, 180.4573
1079.568, 180.5126
1080.051, 180.9850
1080.533, 181.4357
1081.015, 181.9170
1081.497, 182.0994
1081.979, 181.6099
1082.461, 180.6523
1082.943, 180.6418
1083.425, 181.4647
1083.907, 182.2776
1084.390, 182.8106
1084.872, 183.0401
1085.354, 182.8116
1085.836, 182.3333
1086.318, 181.8219
1086.800, 181.1515
1087.282, 181.0752
1087.764, 181.6609
1088.246, 182.3769
1088.729, 182.9541
1089.211, 183.3186
1089.693, 183.1778
1090.175, 182.7204
1090.657, 182.7099
1091.139, 183.8170
1091.621, 184.3097
1092.103, 183.7866
1092.586, 182.9473
1093.068, 182.7165
1093.550, 182.8998
1094.032, 183.0224
1094.514, 183.0288
1094.996, 183.1925
1095.478, 183.9776
1095.960, 184.5255
1096.443, 184.4009
1096.925, 183.8803
1097.407, 183.8211
1097.889, 184.1538
1098.371, 184.3573
1098.853, 184.2577
1099.335, 184.1290
1099.817, 184.3795
1100.299, 184.5197
1100.781, 183.9929
1101.264, 182.7696
1101.746, 181.9948
1102.228, 181.6676
1102.710, 181.7519
1103.192, 182.4776
1103.674, 183.2855
1104.156, 183.5831
1104.638, 183.5011
1105.121, 183.2328
1105.603, 182.5937
1106.085, 182.2192
1106.567, 182.1137
1107.049, 182.2670
1107.531, 182.9335
1108.013, 183.7365
1108.495, 183.8961
1108.978, 183.5111
1109.460, 183.0396
1109.942, 182.2019
1110.424, 181.9773
1110.906, 182.8779
1111.388, 183.9544
1111.870, 183.7577
1112.352, 182.6279
1112.834, 182.0320
1113.317, 182.0846
1113.799, 182.3152
1114.281, 182.3977
1114.763, 182.6608
1115.245, 183.4590
1115.727, 184.4709
1116.209, 184.8540
1116.691, 184.6271
1117.173, 184.1914
1117.656, 183.5719
1118.138, 183.1169
1118.620, 183.2348
1119.102, 183.5673
1119.584, 183.9417
1120.066, 184.3218
1120.548, 183.9513
1121.030, 182.6420
1121.513, 181.9501
1121.995, 182.6899
1122.477, 183.8108
1122.959, 184.0680
1123.441, 183.8636
1123.923, 183.7541
1124.405, 183.8659
1124.887, 184.0311
1125.370, 184.2715
1125.852, 184.4998
1126.334, 184.7259
1126.816, 184.8637
1127.298, 184.5229
1127.780, 183.9671
1128.262, 183.8313
1128.744, 185.1176
1129.226, 185.5999
1129.709, 184.5350
1130.191, 183.4958
1130.673, 184.2003
1131.155, 186.0572
1131.637, 186.6985
1132.119, 186.2420
1132.601, 185.6849
1133.083, 185.3426
1133.566, 185.2187
1134.048, 185.3683
1134.530, 185.6729
1135.012, 186.1061
1135.494, 186.6173
1135.976, 186.5641
1136.458, 185.8967
1136.940, 185.2986
1137.422, 185.1106
1137.905, 185.2655
1138.387, 186.1279
1138.869, 187.2257
1139.351, 187.2506
1139.833, 186.1503
1140.315, 185.2211
1140.797, 184.6695
1141.279, 184.4909
1141.761, 184.9567
1142.244, 185.5745
1142.726, 185.8655
1143.208, 185.8376
1143.690, 186.1333
1144.172, 186.8551
1144.654, 187.2544
1145.136, 187.0428
1145.618, 186.5863
1146.101, 186.1272
1146.583, 185.7966
1147.065, 185.8504
1147.547, 186.4740
1148.029, 186.5154
1148.511, 185.6891
1148.993, 185.2016
1149.475, 185.7696
1149.958, 186.6992
1150.440, 186.8982
1150.922, 186.6092
1151.404, 186.2439
1151.886, 185.7651
1152.368, 185.6186
1152.850, 185.9797
1153.332, 186.3324
1153.814, 186.2714
1154.297, 186.0210
1154.779, 186.2628
1155.261, 186.7965
1155.743, 187.0495
1156.225, 186.4693
1156.707, 186.1156
1157.189, 186.2774
1157.671, 186.4396
1158.153, 185.9759
1158.636, 185.1428
1159.118, 185.0575
1159.600, 185.6283
1160.082, 186.3142
1160.564, 187.1921
1161.046, 187.6926
1161.528, 187.4919
1162.010, 187.0491
1162.493, 186.8509
1162.975, 186.8770
1163.457, 186.9712
1163.939, 187.1294
1164.421, 187.4151
1164.903, 188.2784
1165.385, 188.7944
1165.867, 188.3112
1166.349, 187.3871
1166.832, 186.8982
1167.314, 186.8145
1167.796, 186.7964
1168.278, 186.8044
1168.760, 186.9369
1169.242, 187.5780
1169.724, 188.0527
1170.206, 187.7385
1170.688, 186.9987
1171.171, 186.7216
1171.653, 186.9006
1172.135, 187.1360
1172.617, 187.3485
1173.099, 187.6497
1173.581, 188.2793
1174.063, 188.9047
1174.545, 189.3388
1175.028, 189.5542
1175.510, 189.2692
1175.992, 188.4526
1176.474, 187.7874
1176.956, 187.4051
1177.438, 187.3816
1177.920, 188.2817
1178.402, 189.2066
1178.885, 189.0482
1179.367, 187.8540
1179.849, 187.7827
1180.331, 188.9670
1180.813, 189.8118
1181.295, 189.6478
1181.777, 189.2542
1182.259, 189.5853
1182.741, 190.0512
1183.224, 189.8712
1183.706, 188.8960
1184.188, 188.4106
1184.670, 188.4316
1185.152, 188.8540
1185.634, 189.8678
1186.116, 190.8339
1186.598, 190.8922
1187.081, 190.5027
1187.563, 190.2448
1188.045, 190.1543
1188.527, 190.3830
1189.009, 190.9640
1189.491, 191.6645
1189.973, 192.6582
1190.455, 193.3441
1190.938, 192.6113
1191.420, 191.1933
1191.902, 190.2740
1192.384, 190.1594
1192.866, 190.2732
1193.348, 190.6847
1193.830, 191.0024
1194.312, 190.9696
1194.794, 190.7059
1195.276, 190.1328
1195.759, 189.4967
1196.241, 189.3389
1196.723, 189.9928
1197.205, 190.5537
1197.687, 191.0489
1198.169, 191.2820
1198.651, 190.7107
1199.133, 190.0661
1199.616, 190.6344
1200.098, 191.8904
1200.580, 192.4478
1201.062, 191.6030
1201.544, 191.2732
1202.026, 191.6322
1202.508, 192.1289
1202.990, 192.2855
1203.473, 192.2923
1203.955, 192.4467
1204.437, 192.6710
1204.919, 192.6699
1205.401, 192.2465
1205.883, 191.9727
1206.365, 191.8761
1206.847, 191.9937
1207.329, 192.6832
1207.812, 193.3830
1208.294, 193.2854
1208.776, 192.5296
1209.258, 191.7765
1209.740, 190.8378
1210.222, 190.7187
1210.704, 191.7264
1211.186, 192.7755
1211.668, 192.5459
1212.151, 191.8719
1212.633, 191.7502
1213.115, 192.1667
1213.597, 192.7553
1214.079, 193.6584
1214.561, 194.1317
1215.043, 194.0202
1215.525, 193.6774
1216.008, 193.2061
1216.490, 192.9036
1216.972, 193.3680
1217.454, 194.4493
1217.936, 194.8565
1218.418, 194.3054
1218.900, 193.8276
1219.382, 193.5711
1219.865, 193.5063
1220.347, 193.7111
1220.829, 194.0100
1221.311, 194.2677
1221.793, 194.4424
1222.275, 194.3624
1222.757, 193.9451
1223.239, 193.5774
1223.721, 193.2950
1224.203, 193.2688
1224.686, 193.9931
1225.168, 194.8475
1225.650, 195.2073
1226.132, 195.0292
1226.614, 194.5986
1227.096, 193.7567
1227.578, 193.7073
1228.061, 194.9058
1228.543, 195.9809
1229.025, 194.8325
1229.507, 193.3398
1229.989, 193.5810
1230.471, 195.4365
1230.953, 196.4062
1231.435, 196.3983
1231.917, 196.3437
1232.400, 196.4584
1232.882, 196.5548
1233.364, 196.3227
1233.846, 196.0939
1234.328, 196.3563
1234.810, 196.9540
1235.292, 196.6617
1235.774, 195.4141
1236.256, 194.9995
1236.739, 196.0339
1237.221, 197.0251
1237.703, 196.4073
1238.185, 195.4804
1238.667, 195.3793
1239.149, 195.9099
1239.631, 196.2006
1240.113, 196.2524
1240.596, 196.1639
1241.078, 195.9343
1241.560, 195.7042
1242.042, 195.3588
1242.524, 195.2819
1243.006, 195.9388
1243.488, 197.0122
1243.970, 197.2576
1244.453, 196.7606
1244.935, 196.1179
1245.417, 195.3805
1245.899, 195.0346
1246.381, 195.6196
1246.863, 196.4699
1247.345, 197.3801
1247.827, 198.1516
1248.309, 197.7130
1248.792, 196.4570
1249.274, 196.2608
1249.756, 197.7735
1250.238, 199.0154
1250.720, 198.8446
1251.202, 198.3598
1251.684, 197.8618
1252.166, 197.5156
1252.648, 197.9334
1253.131, 198.8484
1253.613, 199.5166
1254.095, 199.7932
1254.577, 199.6947
1255.059, 198.7298
1255.541, 198.1653
1256.023, 198.6071
1256.505, 199.5011
1256.988, 199.6969
1257.470, 199.4645
1257.952, 199.3519
1258.434, 199.4686
1258.916, 199.6855
1259.398, 200.1448
1259.880, 200.2997
1260.362, 199.8451
1260.844, 199.2454
1261.327, 199.2726
1261.809, 199.6659
1262.291, 200.1084
1262.773, 200.5715
1263.255, 200.6410
1263.737, 200.1608
1264.219, 199.7895
1264.701, 199.7319
1265.183, 199.8696
1265.666, 200.1614
1266.148, 200.4905
1266.630, 200.6758
1267.112, 200.6991
1267.594, 200.9817
1268.076, 201.5815
1268.558, 201.9775
1269.040, 201.9912
1269.523, 201.8574
1270.005, 201.5524
1270.487, 201.4047
1270.969, 201.9294
1271.451, 202.9462
1271.933, 203.4510
1272.415, 203.4464
1272.897, 203.1247
1273.380, 202.4670
1273.862, 201.9148
1274.344, 201.9318
1274.826, 202.0203
1275.308, 201.7374
1275.790, 201.3145
1276.272, 201.6640
1276.754, 202.6206
1277.236, 203.3634
1277.719, 203.7381
1278.201, 203.6920
1278.683, 202.6549
1279.165, 201.8549
1279.647, 201.8752
1280.129, 202.3067
1280.611, 202.0808
1281.093, 201.5719
1281.576, 202.0391
1282.058, 203.7486
1282.540, 204.7074
1283.022, 203.6816
1283.504, 202.9368
1283.986, 203.1170
1284.468, 203.6786
1284.950, 203.7684
1285.432, 203.6651
1285.915, 203.9592
1286.397, 204.6818
1286.879, 204.6691
1287.361, 203.4128
1287.843, 202.9708
1288.325, 203.9743
1288.807, 205.2305
1289.289, 205.2187
1289.771, 204.8410
1290.254, 205.2502
1290.736, 206.2824
1291.218, 206.2869
1291.700, 205.0890
1292.182, 204.5561
1292.664, 205.0302
1293.146, 205.8813
1293.628, 207.2311
1294.111, 208.1274
1294.593, 207.3397
1295.075, 205.8235
1295.557, 205.6819
1296.039, 206.7535
1296.521, 207.2207
1297.003, 206.8850
1297.485, 206.5457
1297.968, 206.6937
1298.450, 206.8521
1298.932, 206.7920
1299.414, 206.7303
1299.896, 207.1763
1300.378, 207.8678
1300.860, 207.8274
1301.342, 207.0871
1301.824, 206.5922
##END=



