##NAMES=Larnite
##RRUFFID=R070530
##IDEAL CHEMISTRY=Ca_2_SiO_4_
##LOCALITY=Larne, County Antrim, Northern Ireland, UK
##OWNER=RRUFF
##SOURCE=Michael Scott
##DESCRIPTION=Light gray massive
##STATUS=The identification of this mineral has been confirmed by single-crystal X-ray diffraction.
##URL=rruff.info/R070530
128.9685, 3520.745
129.4506, 3711.607
129.9328, 3885.725
130.4149, 4032.305
130.8970, 4167.238
131.3791, 4325.284
131.8612, 4509.211
132.3433, 4686.055
132.8255, 4823.539
133.3076, 4923.984
133.7897, 5036.189
134.2718, 5181.254
134.7539, 5346.416
135.2360, 5468.984
135.7182, 5542.605
136.2003, 5596.275
136.6824, 5663.857
137.1645, 5749.227
137.6466, 5827.647
138.1287, 5889.423
138.6109, 5933.300
139.0930, 5988.499
139.5751, 6065.417
140.0572, 6142.258
140.5393, 6175.589
141.0214, 6145.939
141.5036, 6116.445
141.9857, 6110.762
142.4678, 6131.744
142.9499, 6171.336
143.4320, 6239.145
143.9141, 6324.198
144.3963, 6386.485
144.8784, 6405.654
145.3605, 6426.642
145.8426, 6474.263
146.3247, 6564.947
146.8068, 6656.627
147.2890, 6751.674
147.7711, 6848.654
148.2532, 6927.455
148.7353, 6970.267
149.2174, 7006.406
149.6995, 7055.701
150.1817, 7145.254
150.6638, 7220.217
151.1459, 7272.082
151.6280, 7299.120
152.1101, 7318.812
152.5922, 7324.287
153.0744, 7325.750
153.5565, 7333.532
154.0386, 7360.641
154.5207, 7383.500
155.0028, 7395.120
155.4849, 7393.013
155.9671, 7386.918
156.4492, 7374.147
156.9313, 7359.083
157.4134, 7348.661
157.8955, 7352.842
158.3777, 7355.802
158.8598, 7347.985
159.3419, 7318.101
159.8240, 7297.504
160.3061, 7302.511
160.7882, 7324.872
161.2704, 7343.830
161.7525, 7350.384
162.2346, 7351.498
162.7167, 7352.263
163.1988, 7357.849
163.6809, 7358.207
164.1631, 7345.847
164.6452, 7322.926
165.1273, 7299.647
165.6094, 7273.574
166.0915, 7252.837
166.5736, 7245.685
167.0558, 7269.981
167.5379, 7297.153
168.0200, 7309.490
168.5021, 7307.455
168.9842, 7296.373
169.4663, 7266.246
169.9485, 7231.457
170.4306, 7212.887
170.9127, 7238.610
171.3948, 7273.856
171.8769, 7284.756
172.3590, 7269.276
172.8412, 7244.113
173.3233, 7224.456
173.8054, 7205.768
174.2875, 7178.333
174.7696, 7123.131
175.2517, 7061.255
175.7339, 7022.652
176.2160, 7011.917
176.6981, 7013.048
177.1802, 7012.139
177.6623, 7009.677
178.1444, 7007.501
178.6266, 7016.327
179.1087, 7025.059
179.5908, 7006.997
180.0729, 6950.995
180.5550, 6885.534
181.0371, 6853.681
181.5193, 6851.268
182.0014, 6849.422
182.4835, 6820.792
182.9656, 6776.260
183.4477, 6749.479
183.9298, 6753.447
184.4120, 6770.406
184.8941, 6768.312
185.3762, 6747.332
185.8583, 6719.818
186.3404, 6692.036
186.8225, 6664.977
187.3047, 6641.740
187.7868, 6620.723
188.2689, 6605.536
188.7510, 6613.673
189.2331, 6647.824
189.7152, 6676.772
190.1974, 6662.500
190.6795, 6608.706
191.1616, 6559.713
191.6437, 6529.355
192.1258, 6514.289
192.6080, 6501.131
193.0901, 6489.963
193.5722, 6479.479
194.0543, 6468.747
194.5364, 6457.849
195.0185, 6445.144
195.5007, 6431.960
195.9828, 6417.501
196.4649, 6388.969
196.9470, 6339.585
197.4291, 6291.831
197.9112, 6285.756
198.3934, 6327.300
198.8755, 6359.625
199.3576, 6355.089
199.8397, 6312.164
200.3218, 6278.465
200.8039, 6256.732
201.2861, 6240.128
201.7682, 6215.854
202.2503, 6182.210
202.7324, 6148.703
203.2145, 6115.087
203.6966, 6078.557
204.1788, 6068.802
204.6609, 6097.715
205.1430, 6143.480
205.6251, 6154.647
206.1072, 6122.931
206.5893, 6082.542
207.0715, 6049.770
207.5536, 6025.348
208.0357, 6007.248
208.5178, 5998.393
208.9999, 5994.416
209.4820, 5981.140
209.9642, 5955.724
210.4463, 5927.713
210.9284, 5900.355
211.4105, 5870.642
211.8926, 5855.648
212.3747, 5864.272
212.8569, 5888.116
213.3390, 5889.002
213.8211, 5857.242
214.3032, 5820.843
214.7853, 5800.214
215.2674, 5802.022
215.7496, 5800.435
216.2317, 5794.070
216.7138, 5782.152
217.1959, 5755.518
217.6780, 5700.800
218.1601, 5651.514
218.6423, 5640.459
219.1244, 5691.761
219.6065, 5718.564
220.0886, 5697.597
220.5707, 5632.868
221.0528, 5603.353
221.5350, 5626.438
222.0171, 5661.321
222.4992, 5671.243
222.9813, 5642.728
223.4634, 5619.368
223.9455, 5611.449
224.4277, 5618.961
224.9098, 5617.667
225.3919, 5602.479
225.8740, 5584.149
226.3561, 5572.330
226.8382, 5566.976
227.3204, 5569.167
227.8025, 5584.880
228.2846, 5616.148
228.7667, 5622.436
229.2488, 5588.220
229.7310, 5543.780
230.2131, 5523.137
230.6952, 5541.121
231.1773, 5555.680
231.6594, 5556.599
232.1415, 5542.112
232.6237, 5530.210
233.1058, 5526.462
233.5879, 5520.647
234.0700, 5496.489
234.5521, 5431.901
235.0342, 5389.159
235.5164, 5392.780
235.9985, 5454.541
236.4806, 5486.744
236.9627, 5478.885
237.4448, 5449.438
237.9269, 5420.116
238.4091, 5385.425
238.8912, 5360.674
239.3733, 5351.676
239.8554, 5361.633
240.3375, 5371.677
240.8196, 5383.158
241.3018, 5393.790
241.7839, 5400.962
242.2660, 5406.676
242.7481, 5405.266
243.2302, 5392.069
243.7123, 5361.719
244.1945, 5344.102
244.6766, 5343.651
245.1587, 5353.095
245.6408, 5362.284
246.1229, 5374.413
246.6050, 5380.689
247.0872, 5376.817
247.5693, 5359.258
248.0514, 5345.879
248.5335, 5337.736
249.0156, 5333.117
249.4977, 5329.096
249.9799, 5324.775
250.4620, 5322.672
250.9441, 5323.805
251.4262, 5328.750
251.9083, 5335.714
252.3904, 5349.238
252.8726, 5361.815
253.3547, 5357.183
253.8368, 5320.944
254.3189, 5294.498
254.8010, 5296.228
255.2831, 5337.691
255.7653, 5361.658
256.2474, 5363.655
256.7295, 5350.992
257.2116, 5333.542
257.6937, 5303.300
258.1758, 5285.077
258.6580, 5292.951
259.1401, 5337.752
259.6222, 5361.158
260.1043, 5354.612
260.5864, 5332.934
261.0685, 5322.363
261.5507, 5324.839
262.0328, 5333.966
262.5149, 5348.472
262.9970, 5369.622
263.4791, 5391.712
263.9612, 5418.837
264.4434, 5443.506
264.9255, 5451.631
265.4076, 5439.340
265.8897, 5420.827
266.3718, 5397.749
266.8539, 5367.209
267.3361, 5352.398
267.8182, 5358.186
268.3003, 5374.678
268.7824, 5385.067
269.2645, 5387.110
269.7466, 5389.770
270.2288, 5393.354
270.7109, 5396.055
271.1930, 5420.302
271.6751, 5476.059
272.1572, 5540.441
272.6393, 5575.207
273.1215, 5575.408
273.6036, 5567.133
274.0857, 5560.123
274.5678, 5554.741
275.0499, 5541.166
275.5320, 5514.313
276.0142, 5487.669
276.4963, 5484.346
276.9784, 5507.798
277.4605, 5533.332
277.9426, 5550.037
278.4247, 5558.200
278.9069, 5577.211
279.3890, 5611.233
279.8711, 5646.698
280.3532, 5659.145
280.8354, 5646.054
281.3175, 5641.836
281.7996, 5668.503
282.2817, 5721.198
282.7638, 5743.953
283.2459, 5731.309
283.7281, 5705.759
284.2102, 5694.756
284.6923, 5698.300
285.1744, 5707.152
285.6565, 5719.125
286.1386, 5733.763
286.6208, 5748.735
287.1029, 5764.250
287.5850, 5779.383
288.0671, 5793.198
288.5492, 5805.766
289.0313, 5817.856
289.5135, 5829.735
289.9956, 5841.350
290.4777, 5851.803
290.9598, 5860.800
291.4419, 5871.457
291.9240, 5890.137
292.4062, 5914.870
292.8883, 5934.001
293.3704, 5937.616
293.8525, 5935.050
294.3346, 5953.484
294.8167, 5993.821
295.2989, 6030.855
295.7810, 6030.134
296.2631, 6004.317
296.7452, 5994.344
297.2273, 6022.995
297.7094, 6069.404
298.1916, 6100.793
298.6737, 6117.231
299.1558, 6128.001
299.6379, 6130.621
300.1200, 6133.372
300.6021, 6156.065
301.0843, 6218.597
301.5664, 6290.891
302.0485, 6336.674
302.5306, 6357.730
303.0127, 6366.066
303.4948, 6357.206
303.9770, 6344.365
304.4591, 6350.167
304.9412, 6395.675
305.4233, 6443.518
305.9054, 6452.167
306.3875, 6428.570
306.8697, 6406.509
307.3518, 6403.201
307.8339, 6414.906
308.3160, 6440.496
308.7981, 6492.253
309.2802, 6537.701
309.7624, 6541.587
310.2445, 6515.920
310.7266, 6499.645
311.2087, 6533.272
311.6908, 6574.484
312.1729, 6582.016
312.6551, 6527.438
313.1372, 6480.211
313.6193, 6485.623
314.1014, 6527.692
314.5835, 6568.919
315.0656, 6600.126
315.5478, 6621.461
316.0299, 6632.031
316.5120, 6629.037
316.9941, 6622.330
317.4762, 6612.233
317.9583, 6601.290
318.4405, 6593.904
318.9226, 6598.104
319.4047, 6600.985
319.8868, 6594.009
320.3689, 6570.568
320.8510, 6556.864
321.3332, 6571.188
321.8153, 6595.998
322.2974, 6606.618
322.7795, 6575.599
323.2616, 6550.755
323.7437, 6554.274
324.2259, 6598.413
324.7080, 6617.730
325.1901, 6590.260
325.6722, 6540.316
326.1543, 6494.915
326.6364, 6456.120
327.1186, 6420.833
327.6007, 6383.423
328.0828, 6341.448
328.5649, 6324.658
329.0470, 6358.407
329.5291, 6401.019
330.0113, 6418.521
330.4934, 6406.680
330.9755, 6375.088
331.4576, 6309.660
331.9397, 6215.026
332.4218, 6166.522
332.9040, 6190.806
333.3861, 6230.531
333.8682, 6245.934
334.3503, 6230.077
334.8324, 6206.329
335.3145, 6173.779
335.7967, 6134.940
336.2788, 6102.362
336.7609, 6077.210
337.2430, 6055.115
337.7251, 6036.575
338.2072, 6024.084
338.6894, 5999.536
339.1715, 5959.517
339.6536, 5908.225
340.1357, 5850.482
340.6178, 5781.062
341.0999, 5729.366
341.5821, 5720.400
342.0642, 5753.592
342.5463, 5767.251
343.0284, 5754.358
343.5105, 5730.999
343.9926, 5729.971
344.4748, 5750.551
344.9569, 5755.780
345.4390, 5709.645
345.9211, 5629.614
346.4032, 5598.344
346.8853, 5622.336
347.3675, 5660.242
347.8496, 5665.437
348.3317, 5643.174
348.8138, 5615.148
349.2959, 5589.054
349.7780, 5563.250
350.2602, 5532.911
350.7423, 5498.125
351.2244, 5463.047
351.7065, 5429.037
352.1887, 5397.344
352.6708, 5370.894
353.1529, 5348.094
353.6350, 5333.349
354.1171, 5339.557
354.5992, 5362.505
355.0814, 5375.228
355.5635, 5344.678
356.0456, 5300.172
356.5277, 5277.334
357.0098, 5299.449
357.4919, 5321.136
357.9741, 5307.125
358.4562, 5268.634
358.9383, 5236.630
359.4204, 5239.296
359.9025, 5245.211
360.3846, 5229.256
360.8668, 5175.866
361.3489, 5130.937
361.8310, 5121.411
362.3131, 5131.089
362.7952, 5132.313
363.2773, 5095.589
363.7595, 5067.459
364.2416, 5076.686
364.7237, 5140.717
365.2058, 5170.637
365.6879, 5115.158
366.1700, 5032.212
366.6522, 4984.349
367.1343, 5009.563
367.6164, 5036.699
368.0985, 5059.800
368.5806, 5079.834
369.0627, 5071.892
369.5449, 5004.813
370.0270, 4933.623
370.5091, 4898.591
370.9912, 4924.293
371.4733, 4943.876
371.9554, 4949.595
372.4376, 4943.585
372.9197, 4936.740
373.4018, 4929.225
373.8839, 4920.689
374.3660, 4913.371
374.8481, 4911.500
375.3303, 4889.417
375.8124, 4833.294
376.2945, 4767.551
376.7766, 4753.929
377.2587, 4804.071
377.7408, 4846.345
378.2230, 4837.283
378.7051, 4779.394
379.1872, 4750.892
379.6693, 4757.019
380.1514, 4778.299
380.6335, 4792.837
381.1157, 4800.712
381.5978, 4801.283
382.0799, 4791.942
382.5620, 4775.772
383.0441, 4756.793
383.5262, 4734.556
384.0084, 4720.822
384.4905, 4739.044
384.9726, 4774.167
385.4547, 4786.892
385.9368, 4754.740
386.4189, 4710.303
386.9011, 4693.105
387.3832, 4698.671
387.8653, 4705.471
388.3474, 4692.304
388.8295, 4676.136
389.3116, 4678.814
389.7938, 4712.313
390.2759, 4744.527
390.7580, 4748.487
391.2401, 4736.474
391.7222, 4734.414
392.2043, 4767.414
392.6865, 4802.694
393.1686, 4820.906
393.6507, 4817.132
394.1328, 4811.595
394.6149, 4810.891
395.0970, 4811.731
395.5792, 4810.431
396.0613, 4792.487
396.5434, 4786.309
397.0255, 4810.402
397.5076, 4865.242
397.9897, 4892.143
398.4719, 4856.277
398.9540, 4811.938
399.4361, 4791.908
399.9182, 4808.463
400.4003, 4832.190
400.8824, 4871.893
401.3646, 4917.934
401.8467, 4933.538
402.3288, 4904.268
402.8109, 4869.312
403.2930, 4843.692
403.7751, 4826.011
404.2573, 4826.678
404.7394, 4854.588
405.2215, 4889.601
405.7036, 4897.263
406.1857, 4874.455
406.6678, 4846.761
407.1500, 4819.428
407.6321, 4793.875
408.1142, 4778.711
408.5963, 4773.966
409.0784, 4780.165
409.5605, 4806.762
410.0427, 4848.409
410.5248, 4875.170
411.0069, 4875.302
411.4890, 4862.842
411.9711, 4860.771
412.4532, 4867.939
412.9354, 4876.748
413.4175, 4886.381
413.8996, 4892.949
414.3817, 4890.003
414.8638, 4875.686
415.3459, 4854.979
415.8281, 4819.600
416.3102, 4781.316
416.7923, 4763.963
417.2744, 4796.124
417.7565, 4840.601
418.2386, 4873.785
418.7208, 4894.105
419.2029, 4910.976
419.6850, 4927.756
420.1671, 4943.486
420.6492, 4957.523
421.1313, 4963.378
421.6135, 4974.013
422.0956, 4996.834
422.5777, 5029.090
423.0598, 5054.751
423.5420, 5064.142
424.0241, 5072.247
424.5062, 5086.638
424.9883, 5114.875
425.4704, 5135.614
425.9525, 5144.858
426.4347, 5148.492
426.9168, 5156.337
427.3989, 5166.166
427.8810, 5184.955
428.3631, 5217.407
428.8452, 5264.019
429.3274, 5305.152
429.8095, 5338.143
430.2916, 5369.864
430.7737, 5407.725
431.2558, 5451.925
431.7379, 5497.279
432.2201, 5546.665
432.7022, 5592.890
433.1843, 5608.282
433.6664, 5592.807
434.1485, 5585.185
434.6306, 5623.399
435.1128, 5689.915
435.5949, 5732.208
436.0770, 5739.964
436.5591, 5741.504
437.0412, 5769.786
437.5233, 5817.300
438.0055, 5864.873
438.4876, 5914.543
438.9697, 5953.391
439.4518, 5956.159
439.9339, 5924.350
440.4160, 5909.348
440.8982, 5967.333
441.3803, 6045.471
441.8624, 6092.032
442.3445, 6071.997
442.8266, 6044.045
443.3087, 6023.922
443.7909, 6011.100
444.2730, 6004.209
444.7551, 6003.701
445.2372, 6008.276
445.7193, 6022.110
446.2014, 6062.380
446.6836, 6067.983
447.1657, 6011.845
447.6478, 5933.680
448.1299, 5881.950
448.6120, 5875.104
449.0941, 5863.710
449.5763, 5835.405
450.0584, 5791.950
450.5405, 5762.593
451.0226, 5755.792
451.5047, 5743.490
451.9868, 5699.779
452.4690, 5620.631
452.9511, 5554.501
453.4332, 5507.121
453.9153, 5473.134
454.3974, 5448.764
454.8795, 5433.125
455.3617, 5411.557
455.8438, 5369.036
456.3259, 5315.934
456.8080, 5283.244
457.2901, 5273.262
457.7722, 5258.092
458.2544, 5192.812
458.7365, 5107.155
459.2186, 5059.913
459.7007, 5099.624
460.1828, 5146.049
460.6649, 5118.640
461.1471, 5037.690
461.6292, 4975.673
462.1113, 4987.362
462.5934, 5016.422
463.0755, 5024.891
463.5576, 5003.296
464.0398, 4976.245
464.5219, 4946.440
465.0040, 4916.695
465.4861, 4890.617
465.9682, 4866.914
466.4503, 4849.004
466.9325, 4838.702
467.4146, 4835.775
467.8967, 4834.052
468.3788, 4835.136
468.8609, 4835.612
469.3430, 4832.463
469.8252, 4822.307
470.3073, 4819.405
470.7894, 4827.539
471.2715, 4840.135
471.7536, 4842.482
472.2357, 4832.605
472.7179, 4826.407
473.2000, 4832.920
473.6821, 4848.984
474.1642, 4856.083
474.6463, 4853.416
475.1284, 4850.178
475.6106, 4860.350
476.0927, 4877.426
476.5748, 4880.262
477.0569, 4858.725
477.5390, 4831.062
478.0211, 4817.696
478.5033, 4815.756
478.9854, 4816.045
479.4675, 4808.375
479.9496, 4804.153
480.4317, 4818.243
480.9138, 4854.812
481.3960, 4880.582
481.8781, 4874.259
482.3602, 4852.052
482.8423, 4830.653
483.3244, 4793.867
483.8065, 4780.027
484.2887, 4820.066
484.7708, 4898.863
485.2529, 4934.494
485.7350, 4885.879
486.2171, 4834.512
486.6992, 4816.073
487.1814, 4847.197
487.6635, 4854.521
488.1456, 4829.075
488.6277, 4789.348
489.1098, 4757.480
489.5919, 4733.055
490.0741, 4717.962
490.5562, 4715.211
491.0383, 4721.006
491.5204, 4723.933
492.0026, 4724.303
492.4847, 4716.261
492.9668, 4687.368
493.4489, 4646.677
493.9310, 4623.876
494.4131, 4626.292
494.8953, 4628.939
495.3774, 4589.285
495.8595, 4529.556
496.3416, 4499.739
496.8237, 4566.292
497.3058, 4634.317
497.7880, 4621.802
498.2701, 4538.505
498.7522, 4463.254
499.2343, 4436.858
499.7164, 4429.251
500.1985, 4419.465
500.6807, 4398.808
501.1628, 4386.519
501.6449, 4393.044
502.1270, 4408.242
502.6091, 4415.366
503.0912, 4414.572
503.5734, 4404.827
504.0555, 4381.618
504.5376, 4346.289
505.0197, 4322.745
505.5018, 4316.299
505.9839, 4311.753
506.4661, 4295.562
506.9482, 4265.362
507.4303, 4249.515
507.9124, 4253.948
508.3945, 4265.994
508.8766, 4264.335
509.3588, 4250.365
509.8409, 4235.786
510.3230, 4223.258
510.8051, 4214.242
511.2872, 4214.372
511.7693, 4222.985
512.2515, 4230.015
512.7336, 4222.216
513.2157, 4211.255
513.6978, 4213.620
514.1799, 4240.822
514.6620, 4261.079
515.1442, 4250.222
515.6263, 4221.789
516.1084, 4198.982
516.5905, 4195.006
517.0726, 4191.324
517.5547, 4177.089
518.0369, 4151.496
518.5190, 4143.413
519.0011, 4171.371
519.4832, 4201.071
519.9653, 4213.046
520.4474, 4200.437
520.9296, 4184.138
521.4117, 4157.745
521.8938, 4134.294
522.3759, 4142.332
522.8580, 4187.930
523.3401, 4225.923
523.8223, 4240.968
524.3044, 4237.363
524.7865, 4229.399
525.2686, 4217.112
525.7507, 4203.113
526.2328, 4185.802
526.7150, 4168.849
527.1971, 4160.070
527.6792, 4161.532
528.1613, 4167.939
528.6434, 4180.190
529.1255, 4193.331
529.6077, 4198.926
530.0898, 4188.367
530.5719, 4174.032
531.0540, 4164.125
531.5361, 4157.404
532.0182, 4142.716
532.5004, 4099.551
532.9825, 4060.947
533.4646, 4046.465
533.9467, 4071.607
534.4288, 4089.708
534.9109, 4102.405
535.3931, 4107.098
535.8752, 4096.701
536.3573, 4060.724
536.8394, 4042.445
537.3215, 4060.775
537.8036, 4100.643
538.2858, 4096.304
538.7679, 4043.466
539.2500, 3987.043
539.7321, 3956.643
540.2142, 3946.128
540.6964, 3933.187
541.1785, 3915.972
541.6606, 3901.432
542.1427, 3896.674
542.6248, 3899.749
543.1069, 3908.095
543.5891, 3931.388
544.0712, 3946.731
544.5533, 3932.265
545.0354, 3896.157
545.5175, 3863.208
545.9996, 3836.677
546.4818, 3820.667
546.9639, 3820.998
547.4460, 3842.475
547.9281, 3857.463
548.4102, 3873.159
548.8923, 3875.078
549.3745, 3847.600
549.8566, 3765.158
550.3387, 3712.297
550.8208, 3707.361
551.3029, 3728.115
551.7850, 3716.486
552.2672, 3666.042
552.7493, 3632.060
553.2314, 3645.004
553.7135, 3692.400
554.1956, 3728.552
554.6777, 3753.462
555.1599, 3767.045
555.6420, 3763.726
556.1241, 3750.177
556.6062, 3738.366
557.0883, 3731.656
557.5704, 3723.487
558.0526, 3705.266
558.5347, 3682.869
559.0168, 3665.864
559.4989, 3660.505
559.9810, 3659.020
560.4631, 3659.195
560.9453, 3660.927
561.4274, 3664.058
561.9095, 3663.181
562.3916, 3668.627
562.8737, 3688.886
563.3558, 3735.127
563.8380, 3754.540
564.3201, 3737.581
564.8022, 3706.287
565.2843, 3682.270
565.7664, 3664.678
566.2485, 3665.026
566.7307, 3693.342
567.2128, 3731.593
567.6949, 3736.843
568.1770, 3712.620
568.6591, 3688.323
569.1412, 3677.423
569.6234, 3677.427
570.1055, 3689.621
570.5876, 3713.693
571.0697, 3731.831
571.5518, 3722.236
572.0339, 3705.986
572.5161, 3704.002
572.9982, 3726.708
573.4803, 3753.366
573.9624, 3773.298
574.4445, 3794.230
574.9266, 3829.912
575.4088, 3912.471
575.8909, 3970.760
576.3730, 3985.993
576.8551, 3962.551
577.3372, 3933.956
577.8193, 3893.170
578.3015, 3864.955
578.7836, 3868.600
579.2657, 3903.645
579.7478, 3934.051
580.2299, 3958.732
580.7120, 3979.293
581.1942, 3995.021
581.6763, 4007.608
582.1584, 4024.818
582.6405, 4059.122
583.1226, 4081.940
583.6047, 4047.145
584.0869, 3975.969
584.5690, 3924.602
585.0511, 3920.727
585.5332, 3942.387
586.0153, 3993.514
586.4974, 4075.189
586.9796, 4121.549
587.4617, 4067.789
587.9438, 4015.303
588.4259, 4027.155
588.9080, 4163.756
589.3901, 4235.050
589.8723, 4212.015
590.3544, 4152.958
590.8365, 4149.947
591.3186, 4212.120
591.8007, 4247.249
592.2828, 4220.877
592.7650, 4163.169
593.2471, 4141.223
593.7292, 4153.989
594.2113, 4190.175
594.6934, 4260.914
595.1755, 4342.714
595.6577, 4406.542
596.1398, 4450.767
596.6219, 4482.275
597.1040, 4495.720
597.5862, 4503.472
598.0683, 4517.688
598.5504, 4546.567
599.0325, 4572.228
599.5146, 4589.287
599.9968, 4600.966
600.4789, 4612.809
600.9610, 4628.015
601.4431, 4637.341
601.9252, 4633.066
602.4073, 4621.119
602.8895, 4632.591
603.3716, 4670.546
603.8537, 4718.984
604.3358, 4784.257
604.8179, 4856.749
605.3000, 4873.555
605.7822, 4828.316
606.2643, 4784.409
606.7464, 4805.485
607.2285, 4866.418
607.7106, 4927.066
608.1927, 4981.024
608.6749, 5024.434
609.1570, 5049.844
609.6391, 5063.444
610.1212, 5075.061
610.6033, 5077.391
611.0854, 5089.057
611.5676, 5122.188
612.0497, 5173.595
612.5318, 5211.010
613.0139, 5222.714
613.4960, 5237.498
613.9781, 5271.834
614.4603, 5328.692
614.9424, 5362.313
615.4245, 5366.345
615.9066, 5367.659
616.3887, 5394.680
616.8708, 5443.299
617.3530, 5493.299
617.8351, 5542.178
618.3172, 5586.767
618.7993, 5623.998
619.2814, 5654.314
619.7635, 5679.086
620.2457, 5683.590
620.7278, 5696.671
621.2099, 5743.838
621.6920, 5817.006
622.1741, 5877.229
622.6563, 5896.615
623.1384, 5917.186
623.6205, 5959.437
624.1026, 6028.630
624.5847, 6084.503
625.0668, 6122.538
625.5490, 6154.096
626.0311, 6182.122
626.5132, 6204.699
626.9953, 6256.874
627.4774, 6349.383
627.9595, 6451.407
628.4417, 6512.101
628.9238, 6542.754
629.4059, 6586.292
629.8880, 6660.747
630.3701, 6751.669
630.8522, 6852.503
631.3344, 6958.366
631.8165, 7056.961
632.2986, 7129.125
632.7807, 7204.307
633.2628, 7304.098
633.7449, 7433.311
634.2271, 7539.344
634.7092, 7582.937
635.1913, 7634.248
635.6734, 7737.299
636.1555, 7916.710
636.6376, 8065.391
637.1198, 8176.417
637.6019, 8270.048
638.0840, 8366.401
638.5661, 8466.734
639.0482, 8590.450
639.5303, 8742.553
640.0125, 8916.710
640.4946, 9114.781
640.9767, 9326.139
641.4588, 9523.879
641.9409, 9677.279
642.4230, 9824.447
642.9052, 9984.557
643.3873, 10159.74
643.8694, 10349.86
644.3515, 10566.79
644.8336, 10791.11
645.3157, 11008.04
645.7979, 11206.20
646.2800, 11451.41
646.7621, 11773.06
647.2442, 12098.89
647.7263, 12354.52
648.2084, 12534.25
648.6906, 12731.07
649.1727, 12953.79
649.6548, 13190.85
650.1369, 13415.88
650.6190, 13635.07
651.1011, 13876.83
651.5833, 14163.33
652.0654, 14459.11
652.5475, 14721.36
653.0296, 14964.02
653.5117, 15226.95
653.9938, 15562.26
654.4760, 15889.43
654.9581, 16164.29
655.4402, 16383.16
655.9223, 16602.76
656.4044, 16816.96
656.8865, 17042.62
657.3687, 17294.40
657.8508, 17581.81
658.3329, 17842.70
658.8150, 18077.77
659.2971, 18284.24
659.7792, 18443.65
660.2614, 18568.18
660.7435, 18715.05
661.2256, 18906.15
661.7077, 19091.67
662.1898, 19211.02
662.6719, 19285.22
663.1541, 19354.72
663.6362, 19453.94
664.1183, 19534.44
664.6004, 19575.84
665.0825, 19580.53
665.5646, 19556.20
666.0468, 19473.38
666.5289, 19393.77
667.0110, 19336.10
667.4931, 19299.64
667.9752, 19255.34
668.4573, 19207.70
668.9395, 19139.65
669.4216, 19043.82
669.9037, 18919.50
670.3858, 18745.49
670.8679, 18516.59
671.3500, 18280.60
671.8322, 18102.13
672.3143, 17944.59
672.7964, 17746.15
673.2785, 17479.08
673.7606, 17202.35
674.2427, 16953.25
674.7249, 16714.37
675.2070, 16461.78
675.6891, 16178.40
676.1712, 15899.10
676.6533, 15626.17
677.1354, 15360.67
677.6176, 15097.49
678.0997, 14838.85
678.5818, 14584.18
679.0639, 14338.56
679.5460, 14095.95
680.0281, 13817.44
680.5103, 13506.35
680.9924, 13207.30
681.4745, 12965.02
681.9566, 12749.22
682.4387, 12529.82
682.9208, 12302.75
683.4030, 12057.98
683.8851, 11767.55
684.3672, 11470.78
684.8493, 11198.23
685.3314, 10951.75
685.8135, 10731.49
686.2957, 10544.52
686.7778, 10374.65
687.2599, 10206.87
687.7420, 10044.43
688.2241, 9869.149
688.7062, 9675.967
689.1884, 9473.802
689.6705, 9275.950
690.1526, 9084.593
690.6347, 8913.786
691.1168, 8778.533
691.5989, 8656.514
692.0811, 8517.505
692.5632, 8369.462
693.0453, 8238.469
693.5274, 8151.343
694.0095, 8068.806
694.4916, 7973.552
694.9738, 7864.062
695.4559, 7745.553
695.9380, 7606.352
696.4201, 7473.592
696.9022, 7360.496
697.3843, 7269.651
697.8665, 7177.724
698.3486, 7085.113
698.8307, 6989.351
699.3128, 6874.858
699.7949, 6755.400
700.2770, 6685.987
700.7592, 6683.364
701.2413, 6678.505
701.7234, 6605.564
702.2055, 6495.623
702.6876, 6388.059
703.1697, 6292.000
703.6519, 6206.475
704.1340, 6132.058
704.6161, 6068.490
705.0982, 6014.370
705.5803, 5971.775
706.0624, 5935.989
706.5446, 5912.710
707.0267, 5892.406
707.5088, 5839.989
707.9909, 5754.716
708.4730, 5676.528
708.9551, 5627.607
709.4373, 5596.390
709.9194, 5564.910
710.4015, 5533.291
710.8836, 5501.625
711.3657, 5476.041
711.8478, 5445.359
712.3300, 5397.601
712.8121, 5330.130
713.2942, 5272.044
713.7763, 5224.100
714.2584, 5192.233
714.7405, 5185.345
715.2227, 5214.339
715.7048, 5221.561
716.1869, 5206.387
716.6690, 5170.846
717.1511, 5103.841
717.6332, 5013.849
718.1154, 4951.107
718.5975, 4925.905
719.0796, 4916.867
719.5617, 4912.151
720.0438, 4906.701
720.5259, 4892.429
721.0081, 4862.165
721.4902, 4829.259
721.9723, 4791.438
722.4544, 4755.384
722.9365, 4732.941
723.4186, 4731.878
723.9008, 4732.812
724.3829, 4738.383
724.8650, 4740.861
725.3471, 4710.288
725.8292, 4644.198
726.3113, 4584.274
726.7935, 4548.082
727.2756, 4529.376
727.7577, 4521.342
728.2398, 4522.060
728.7219, 4520.813
729.2040, 4511.113
729.6862, 4497.452
730.1683, 4482.212
730.6504, 4465.575
731.1325, 4448.651
731.6146, 4429.363
732.0967, 4411.955
732.5789, 4397.872
733.0610, 4386.836
733.5431, 4381.873
734.0252, 4384.012
734.5073, 4389.132
734.9894, 4396.541
735.4716, 4404.271
735.9537, 4405.451
736.4358, 4399.595
736.9179, 4384.948
737.4000, 4354.058
737.8821, 4316.102
738.3643, 4281.507
738.8464, 4249.359
739.3286, 4227.425
739.8107, 4221.042
740.2928, 4225.191
740.7749, 4234.426
741.2570, 4254.641
741.7391, 4267.078
742.2213, 4271.341
742.7034, 4264.717
743.1855, 4234.220
743.6676, 4182.884
744.1497, 4144.829
744.6318, 4133.795
745.1140, 4137.846
745.5961, 4144.218
746.0782, 4153.383
746.5603, 4166.539
747.0424, 4200.888
747.5245, 4222.780
748.0067, 4207.762
748.4888, 4163.061
748.9709, 4137.761
749.4530, 4145.832
749.9351, 4151.588
750.4172, 4141.205
750.8994, 4117.710
751.3815, 4106.642
751.8636, 4108.870
752.3457, 4104.885
752.8278, 4073.668
753.3099, 4031.149
753.7921, 4006.896
754.2742, 4000.540
754.7563, 3995.198
755.2384, 3967.872
755.7205, 3947.656
756.2026, 3961.550
756.6848, 4024.317
757.1669, 4059.692
757.6490, 4052.258
758.1311, 4031.410
758.6132, 4013.183
759.0953, 3996.903
759.5775, 3991.934
760.0596, 4000.164
760.5417, 4011.282
761.0238, 4021.752
761.5059, 4026.021
761.9880, 4002.857
762.4702, 3939.684
762.9523, 3894.321
763.4344, 3926.609
763.9165, 3989.000
764.3986, 4029.270
764.8807, 4028.188
765.3629, 4017.191
765.8450, 3984.886
766.3271, 3954.337
766.8092, 3962.553
767.2913, 4018.320
767.7734, 4049.472
768.2556, 4038.996
768.7377, 4009.969
769.2198, 3993.330
769.7019, 3987.073
770.1840, 3985.694
770.6661, 3989.793
771.1483, 3994.521
771.6304, 3993.201
772.1125, 3990.572
772.5946, 3995.969
773.0767, 4021.774
773.5588, 4043.759
774.0410, 4061.637
774.5231, 4071.985
775.0052, 4059.305
775.4873, 4017.507
775.9694, 3990.456
776.4515, 3995.945
776.9337, 4022.222
777.4158, 4054.711
777.8979, 4088.898
778.3800, 4104.829
778.8621, 4077.335
779.3442, 4041.055
779.8264, 4014.321
780.3085, 3997.872
780.7906, 3992.546
781.2727, 4012.163
781.7548, 4027.692
782.2369, 4027.479
782.7191, 4014.228
783.2012, 4017.222
783.6833, 4039.109
784.1654, 4059.868
784.6475, 4061.936
785.1296, 4056.084
785.6118, 4076.358
786.0939, 4118.718
786.5760, 4146.112
787.0581, 4118.244
787.5402, 4079.386
788.0223, 4061.480
788.5045, 4068.965
788.9866, 4070.852
789.4687, 4050.184
789.9508, 4039.775
790.4329, 4063.229
790.9150, 4123.815
791.3972, 4146.046
791.8793, 4125.720
792.3614, 4101.352
792.8435, 4107.561
793.3256, 4130.812
793.8077, 4145.389
794.2899, 4149.183
794.7720, 4147.952
795.2541, 4143.394
795.7362, 4136.525
796.2183, 4126.707
796.7004, 4110.036
797.1826, 4103.144
797.6647, 4107.521
798.1468, 4120.015
798.6289, 4144.465
799.1110, 4181.428
799.5931, 4188.836
800.0753, 4161.079
800.5574, 4130.551
801.0395, 4125.598
801.5216, 4140.631
802.0037, 4171.936
802.4858, 4223.631
802.9680, 4266.427
803.4501, 4283.326
803.9322, 4287.006
804.4143, 4288.092
804.8964, 4285.179
805.3785, 4284.391
805.8607, 4284.906
806.3428, 4288.954
806.8249, 4297.354
807.3070, 4310.706
807.7891, 4339.004
808.2712, 4387.463
808.7534, 4430.278
809.2355, 4437.604
809.7176, 4424.373
810.1997, 4411.031
810.6818, 4403.617
811.1639, 4393.971
811.6461, 4365.555
812.1282, 4342.173
812.6103, 4352.375
813.0924, 4413.816
813.5745, 4450.165
814.0566, 4449.181
814.5388, 4436.350
815.0209, 4447.645
815.5030, 4476.709
815.9851, 4498.875
816.4672, 4506.675
816.9493, 4513.707
817.4315, 4538.516
817.9136, 4566.044
818.3957, 4577.649
818.8778, 4535.348
819.3599, 4524.813
819.8420, 4571.651
820.3242, 4636.038
820.8063, 4663.649
821.2884, 4649.117
821.7705, 4647.071
822.2526, 4668.911
822.7347, 4696.305
823.2169, 4702.216
823.6990, 4695.576
824.1811, 4695.071
824.6632, 4706.112
825.1453, 4724.532
825.6274, 4757.134
826.1096, 4792.767
826.5917, 4814.845
827.0738, 4807.308
827.5559, 4816.848
828.0380, 4854.726
828.5201, 4900.366
829.0023, 4920.678
829.4844, 4917.792
829.9665, 4909.725
830.4486, 4896.947
830.9307, 4890.747
831.4128, 4905.363
831.8950, 4933.869
832.3771, 4967.125
832.8592, 5020.452
833.3413, 5051.683
833.8234, 5028.711
834.3055, 4990.771
834.7877, 4984.847
835.2698, 5017.581
835.7519, 5055.162
836.2340, 5093.945
836.7161, 5134.186
837.1982, 5190.922
837.6804, 5250.316
838.1625, 5269.791
838.6446, 5220.841
839.1267, 5170.339
839.6088, 5159.376
840.0909, 5172.728
840.5731, 5191.227
841.0552, 5228.340
841.5373, 5242.250
842.0194, 5215.879
842.5015, 5183.866
842.9836, 5204.461
843.4658, 5273.956
843.9479, 5310.529
844.4300, 5292.294
844.9121, 5264.369
845.3942, 5271.957
845.8763, 5303.144
846.3585, 5342.763
846.8406, 5401.646
847.3227, 5440.256
847.8048, 5430.664
848.2869, 5405.052
848.7690, 5397.840
849.2512, 5415.677
849.7333, 5423.529
850.2154, 5415.464
850.6975, 5406.200
851.1796, 5414.493
851.6617, 5436.360
852.1439, 5464.820
852.6260, 5503.273
853.1081, 5529.093
853.5902, 5516.207
854.0723, 5489.283
854.5544, 5474.053
855.0366, 5481.048
855.5187, 5486.619
856.0008, 5489.903
856.4829, 5493.049
856.9650, 5497.832
857.4471, 5504.265
857.9293, 5514.797
858.4114, 5530.731
858.8935, 5542.606
859.3756, 5537.109
859.8577, 5524.866
860.3398, 5517.572
860.8220, 5517.608
861.3041, 5521.904
861.7862, 5538.370
862.2683, 5551.901
862.7504, 5551.165
863.2325, 5533.158
863.7147, 5518.009
864.1968, 5505.162
864.6789, 5499.637
865.1610, 5514.059
865.6431, 5536.354
866.1252, 5543.611
866.6074, 5532.645
867.0895, 5518.632
867.5716, 5507.517
868.0537, 5497.244
868.5358, 5485.558
869.0179, 5471.194
869.5001, 5463.538
869.9822, 5465.486
870.4643, 5466.521
870.9464, 5454.241
871.4285, 5434.700
871.9106, 5435.072
872.3928, 5454.836
872.8749, 5474.484
873.3570, 5478.680
873.8391, 5478.929
874.3212, 5484.999
874.8033, 5497.838
875.2855, 5505.938
875.7676, 5512.110
876.2497, 5507.292
876.7318, 5478.169
877.2139, 5432.712
877.6960, 5440.162
878.1782, 5498.574
878.6603, 5543.742
879.1424, 5520.974
879.6245, 5477.022
880.1067, 5464.492
880.5888, 5476.469
881.0709, 5474.741
881.5530, 5425.985
882.0352, 5385.580
882.5173, 5366.747
882.9994, 5368.563
883.4815, 5393.922
883.9636, 5445.695
884.4457, 5487.083
884.9279, 5502.716
885.4100, 5500.221
885.8921, 5489.785
886.3742, 5471.264
886.8563, 5444.033
887.3384, 5374.054
887.8206, 5332.842
888.3027, 5375.320
888.7848, 5457.528
889.2669, 5485.312
889.7490, 5439.389
890.2311, 5415.758
890.7133, 5440.536
891.1954, 5483.728
891.6775, 5492.354
892.1596, 5478.729
892.6417, 5478.421
893.1238, 5519.681
893.6060, 5545.272
894.0881, 5503.826
894.5702, 5437.975
895.0523, 5407.784
895.5344, 5433.201
896.0165, 5453.293
896.4987, 5463.845
896.9808, 5470.461
897.4629, 5484.326
897.9450, 5500.692
898.4271, 5497.576
898.9092, 5467.571
899.3914, 5442.815
899.8735, 5451.071
900.3556, 5474.439
900.8377, 5496.717
901.3198, 5516.741
901.8019, 5532.263
902.2841, 5539.685
902.7662, 5548.629
903.2483, 5570.241
903.7304, 5601.611
904.2125, 5615.626
904.6946, 5611.358
905.1768, 5612.341
905.6589, 5651.815
906.1410, 5693.518
906.6231, 5696.417
907.1052, 5656.269
907.5873, 5641.531
908.0695, 5679.043
908.5516, 5718.949
909.0337, 5745.207
909.5158, 5757.577
909.9979, 5747.087
910.4800, 5715.052
910.9622, 5692.512
911.4443, 5703.920
911.9264, 5728.428
912.4085, 5745.152
912.8906, 5757.317
913.3727, 5776.710
913.8549, 5822.068
914.3370, 5855.727
914.8191, 5868.891
915.3012, 5865.640
915.7833, 5851.853
916.2654, 5827.820
916.7476, 5811.441
917.2297, 5806.437
917.7118, 5814.984
918.1939, 5861.446
918.6760, 5917.703
919.1581, 5936.655
919.6403, 5860.459
920.1224, 5804.123
920.6045, 5783.966
921.0866, 5788.804
921.5687, 5811.186
922.0508, 5852.118
922.5330, 5889.474
923.0151, 5922.298
923.4972, 5943.740
923.9793, 5933.242
924.4614, 5913.519
924.9435, 5919.737
925.4257, 5965.659
925.9078, 5997.574
926.3899, 5986.690
926.8720, 5968.479
927.3541, 5959.788
927.8362, 5960.326
928.3184, 5980.214
928.8005, 6021.226
929.2826, 6060.776
929.7647, 6089.644
930.2468, 6103.688
930.7289, 6074.602
931.2111, 6013.467
931.6932, 6006.565
932.1753, 6154.345
932.6574, 6283.887
933.1395, 6330.573
933.6216, 6313.319
934.1038, 6312.685
934.5859, 6329.112
935.0680, 6356.353
935.5501, 6396.550
936.0322, 6440.056
936.5143, 6479.861
936.9965, 6512.744
937.4786, 6532.775
937.9607, 6511.191
938.4428, 6510.847
938.9249, 6556.184
939.4070, 6619.265
939.8892, 6658.037
940.3713, 6670.426
940.8534, 6699.285
941.3355, 6752.093
941.8176, 6815.949
942.2997, 6880.382
942.7819, 6943.608
943.2640, 7003.925
943.7461, 7062.445
944.2282, 7111.445
944.7103, 7137.898
945.1924, 7164.556
945.6746, 7213.235
946.1567, 7285.609
946.6388, 7299.467
947.1209, 7252.272
947.6030, 7212.632
948.0851, 7233.482
948.5673, 7287.307
949.0494, 7352.997
949.5315, 7426.047
950.0136, 7487.807
950.4957, 7526.551
950.9778, 7560.053
951.4600, 7591.514
951.9421, 7621.631
952.4242, 7655.888
952.9063, 7693.637
953.3884, 7719.294
953.8705, 7718.931
954.3527, 7716.401
954.8348, 7739.949
955.3169, 7777.466
955.7990, 7808.750
956.2811, 7816.308
956.7632, 7835.906
957.2454, 7876.526
957.7275, 7921.353
958.2096, 7942.844
958.6917, 7945.529
959.1738, 7978.208
959.6559, 8050.336
960.1381, 8112.892
960.6202, 8104.519
961.1023, 8078.367
961.5844, 8085.687
962.0665, 8139.259
962.5486, 8187.329
963.0308, 8231.430
963.5129, 8262.349
963.9950, 8273.110
964.4771, 8266.859
964.9592, 8249.086
965.4413, 8224.011
965.9235, 8223.055
966.4056, 8295.820
966.8877, 8368.366
967.3698, 8389.085
967.8519, 8370.523
968.3340, 8357.132
968.8162, 8344.023
969.2983, 8355.862
969.7804, 8406.040
970.2625, 8467.851
970.7446, 8493.521
971.2267, 8493.199
971.7089, 8494.095
972.1910, 8501.034
972.6731, 8517.132
973.1552, 8551.878
973.6373, 8591.662
974.1194, 8620.928
974.6016, 8630.965
975.0837, 8667.165
975.5658, 8736.042
976.0479, 8804.401
976.5300, 8846.898
977.0121, 8871.077
977.4943, 8884.929
977.9764, 8891.213
978.4585, 8909.381
978.9406, 8960.111
979.4227, 9012.298
979.9048, 9048.827
980.3870, 9076.114
980.8691, 9125.560
981.3512, 9199.863
981.8333, 9256.303
982.3154, 9271.841
982.7975, 9278.365
983.2797, 9311.267
983.7618, 9366.231
984.2439, 9436.648
984.7260, 9548.846
985.2081, 9631.686
985.6902, 9666.948
986.1724, 9684.347
986.6545, 9710.479
987.1366, 9745.055
987.6187, 9784.969
988.1008, 9829.721
988.5829, 9887.259
989.0651, 9979.724
989.5472, 10076.67
990.0293, 10146.90
990.5114, 10187.22
990.9935, 10239.82
991.4756, 10315.59
991.9578, 10385.79
992.4399, 10435.68
992.9220, 10474.69
993.4041, 10534.62
993.8862, 10609.85
994.3683, 10677.57
994.8505, 10725.14
995.3326, 10767.07
995.8147, 10809.62
996.2968, 10851.26
996.7789, 10889.68
997.2610, 10923.79
997.7432, 10955.05
998.2253, 10981.10
998.7074, 11013.64
999.1895, 11075.09
999.6716, 11149.71
1000.154, 11209.08
1000.636, 11250.15
1001.118, 11280.53
1001.600, 11303.43
1002.082, 11315.69
1002.564, 11312.04
1003.046, 11295.56
1003.529, 11292.59
1004.011, 11303.15
1004.493, 11324.64
1004.975, 11362.38
1005.457, 11403.50
1005.939, 11441.81
1006.421, 11472.54
1006.903, 11485.09
1007.385, 11450.89
1007.868, 11438.62
1008.350, 11467.42
1008.832, 11498.07
1009.314, 11466.57
1009.796, 11390.78
1010.278, 11353.71
1010.760, 11367.37
1011.242, 11392.01
1011.725, 11405.93
1012.207, 11416.00
1012.689, 11431.39
1013.171, 11452.19
1013.653, 11450.21
1014.135, 11421.79
1014.617, 11383.05
1015.099, 11325.58
1015.581, 11277.20
1016.064, 11317.43
1016.546, 11409.74
1017.028, 11459.36
1017.510, 11379.48
1017.992, 11315.49
1018.474, 11319.15
1018.956, 11341.61
1019.438, 11323.19
1019.921, 11263.21
1020.403, 11203.88
1020.885, 11148.83
1021.367, 11104.27
1021.849, 11085.12
1022.331, 11072.95
1022.813, 11047.73
1023.295, 11006.81
1023.778, 10978.13
1024.260, 10976.08
1024.742, 10959.84
1025.224, 10911.30
1025.706, 10840.16
1026.188, 10763.44
1026.670, 10685.64
1027.152, 10623.07
1027.634, 10596.70
1028.117, 10566.67
1028.599, 10510.66
1029.081, 10443.07
1029.563, 10381.63
1030.045, 10328.56
1030.527, 10269.49
1031.009, 10201.82
1031.491, 10140.87
1031.974, 10115.64
1032.456, 10097.87
1032.938, 10051.20
1033.420, 9974.541
1033.902, 9894.558
1034.384, 9814.113
1034.866, 9736.647
1035.348, 9662.167
1035.830, 9592.393
1036.313, 9529.057
1036.795, 9471.811
1037.277, 9416.901
1037.759, 9366.770
1038.241, 9312.076
1038.723, 9239.452
1039.205, 9163.871
1039.687, 9102.657
1040.169, 9058.807
1040.652, 9023.166
1041.134, 9000.521
1041.616, 8960.383
1042.098, 8853.393
1042.580, 8726.690
1043.062, 8666.326
1043.544, 8660.724
1044.026, 8626.273
1044.509, 8493.826
1044.991, 8381.422
1045.473, 8319.783
1045.955, 8289.938
1046.437, 8252.301
1046.919, 8208.346
1047.401, 8167.519
1047.883, 8131.773
1048.365, 8100.656
1048.848, 8091.162
1049.330, 8074.825
1049.812, 8015.915
1050.294, 7904.671
1050.776, 7825.279
1051.258, 7782.705
1051.740, 7748.855
1052.222, 7714.856
1052.704, 7673.928
1053.187, 7598.343
1053.669, 7503.939
1054.151, 7440.371
1054.633, 7466.628
1055.115, 7467.688
1055.597, 7410.770
1056.079, 7335.144
1056.561, 7301.808
1057.044, 7303.409
1057.526, 7279.930
1058.008, 7222.072
1058.490, 7165.539
1058.972, 7134.290
1059.454, 7115.313
1059.936, 7100.301
1060.418, 7088.660
1060.901, 7082.646
1061.383, 7083.870
1061.865, 7083.738
1062.347, 7083.664
1062.829, 7073.604
1063.311, 7012.938
1063.793, 6936.285
1064.275, 6912.653
1064.757, 7020.390
1065.240, 7079.453
1065.722, 7055.106
1066.204, 7006.079
1066.686, 6977.828
1067.168, 6968.424
1067.650, 6973.444
1068.132, 6990.802
1068.614, 6995.255
1069.096, 6949.779
1069.579, 6908.650
1070.061, 6906.270
1070.543, 6932.563
1071.025, 6962.100
1071.507, 6997.436
1071.989, 7018.630
1072.471, 7021.718
1072.953, 7009.823
1073.436, 6974.440
1073.918, 6932.662
1074.400, 6907.210
1074.882, 6906.866
1075.364, 6899.962
1075.846, 6889.565
1076.328, 6861.199
1076.810, 6796.232
1077.292, 6713.765
1077.775, 6678.703
1078.257, 6677.171
1078.739, 6659.112
1079.221, 6569.381
1079.703, 6498.513
1080.185, 6503.947
1080.667, 6525.497
1081.149, 6493.701
1081.631, 6405.677
1082.114, 6362.659
1082.596, 6372.338
1083.078, 6380.729
1083.560, 6324.940
1084.042, 6265.059
1084.524, 6259.971
1085.006, 6303.702
1085.488, 6321.294
1085.971, 6304.795
1086.453, 6281.954
1086.935, 6258.430
1087.417, 6234.418
1087.899, 6203.698
1088.381, 6174.393
1088.863, 6163.401
1089.345, 6181.390
1089.828, 6192.137
1090.310, 6204.892
1090.792, 6185.456
1091.274, 6101.692
1091.756, 5970.522
1092.238, 5885.263
1092.720, 5836.065
1093.202, 5769.726
1093.684, 5629.014
1094.167, 5497.996
1094.649, 5425.602
1095.131, 5382.129
1095.613, 5328.903
1096.095, 5264.441
1096.577, 5201.051
1097.059, 5139.689
1097.541, 5083.127
1098.024, 5030.283
1098.506, 4986.904
1098.988, 4961.386
1099.470, 4952.690
1099.952, 4950.235
1100.434, 4962.673
1100.916, 4953.908
1101.398, 4909.383
1101.880, 4852.338
1102.363, 4821.165
1102.845, 4805.335
1103.327, 4786.313
1103.809, 4758.951
1104.291, 4733.774
1104.773, 4714.250
1105.255, 4696.549
1105.737, 4677.502
1106.219, 4659.186
1106.702, 4657.211
1107.184, 4667.554
1107.666, 4669.837
1108.148, 4648.433
1108.630, 4624.695
1109.112, 4598.474
1109.594, 4582.004
1110.076, 4597.742
1110.559, 4654.093
1111.041, 4651.739
1111.523, 4584.150
1112.005, 4518.406
1112.487, 4513.065
1112.969, 4528.167
1113.451, 4530.600
1113.933, 4522.550
1114.416, 4522.269
1114.898, 4534.807
1115.380, 4539.950
1115.862, 4531.585
1116.344, 4522.412
1116.826, 4546.692
1117.308, 4573.593
1117.790, 4545.132
1118.272, 4444.231
1118.755, 4377.894
1119.237, 4383.925
1119.719, 4393.509
1120.201, 4379.426
1120.683, 4351.439
1121.165, 4330.195
1121.647, 4316.778
1122.129, 4315.059
1122.611, 4330.239
1123.094, 4349.236
1123.576, 4380.409
1124.058, 4402.028
1124.540, 4392.009
1125.022, 4352.113
1125.504, 4335.404
1125.986, 4340.627
1126.468, 4352.407
1126.951, 4372.750
1127.433, 4384.981
1127.915, 4373.742
1128.397, 4348.831
1128.879, 4328.512
1129.361, 4312.829
1129.843, 4300.612
1130.325, 4291.369
1130.807, 4288.310
1131.290, 4299.191
1131.772, 4314.175
1132.254, 4320.788
1132.736, 4320.363
1133.218, 4334.485
1133.700, 4373.752
1134.182, 4396.856
1134.664, 4392.522
1135.146, 4371.708
1135.629, 4342.388
1136.111, 4310.747
1136.593, 4286.087
1137.075, 4270.505
1137.557, 4261.667
1138.039, 4261.115
1138.521, 4262.038
1139.003, 4257.501
1139.486, 4255.283
1139.968, 4285.177
1140.450, 4334.470
1140.932, 4367.760
1141.414, 4362.228
1141.896, 4356.438
1142.378, 4365.082
1142.860, 4371.967
1143.343, 4360.933
1143.825, 4334.916
1144.307, 4325.200
1144.789, 4329.761
1145.271, 4332.021
1145.753, 4326.534
1146.235, 4312.013
1146.717, 4273.273
1147.199, 4232.804
1147.682, 4224.589
1148.164, 4249.136
1148.646, 4276.061
1149.128, 4303.217
1149.610, 4318.188
1150.092, 4294.850
1150.574, 4270.173
1151.056, 4276.662
1151.538, 4306.778
1152.021, 4321.860
1152.503, 4319.048
1152.985, 4321.536
1153.467, 4334.480
1153.949, 4353.313
1154.431, 4394.842
1154.913, 4425.666
1155.395, 4398.223
1155.878, 4297.177
1156.360, 4246.768
1156.842, 4260.221
1157.324, 4274.489
1157.806, 4264.201
1158.288, 4243.407
1158.770, 4223.618
1159.252, 4211.297
1159.734, 4219.184
1160.217, 4264.932
1160.699, 4293.862
1161.181, 4302.113
1161.663, 4298.404
1162.145, 4278.896
1162.627, 4256.208
1163.109, 4268.691
1163.591, 4301.646
1164.073, 4314.317
1164.556, 4267.790
1165.038, 4233.737
1165.520, 4216.483
1166.002, 4217.368
1166.484, 4253.115
1166.966, 4305.794
1167.448, 4312.909
1167.930, 4278.853
1168.413, 4251.921
1168.895, 4259.684
1169.377, 4270.128
1169.859, 4275.594
1170.341, 4278.155
1170.823, 4285.071
1171.305, 4292.379
1171.787, 4275.606
1172.270, 4231.705
1172.752, 4200.795
1173.234, 4213.753
1173.716, 4236.059
1174.198, 4258.497
1174.680, 4274.977
1175.162, 4258.321
1175.644, 4216.200
1176.126, 4205.806
1176.609, 4247.261
1177.091, 4285.168
1177.573, 4280.757
1178.055, 4262.163
1178.537, 4260.784
1179.019, 4244.672
1179.501, 4283.368
1179.983, 4305.890
1180.465, 4313.106
1180.948, 4259.182
1181.430, 4284.210
1181.912, 4277.596
1182.394, 4269.685
1182.876, 4305.826
1183.358, 4260.791
1183.840, 4296.233
1184.322, 4299.551
1184.805, 4317.575
1185.287, 4303.757
1185.769, 4299.773
1186.251, 4327.637
1186.733, 4337.867
1187.215, 4320.384
1187.697, 4339.339
1188.179, 4293.192
1188.661, 4304.173
1189.144, 4339.806
1189.626, 4323.924
1190.108, 4343.461
1190.590, 4349.508
1191.072, 4294.253
1191.554, 4345.609
1192.036, 4350.860
1192.518, 4308.769
1193.000, 4320.270
1193.483, 4314.707
1193.965, 4291.291
1194.447, 4268.835
1194.929, 4268.007
1195.411, 4286.440
1195.893, 4306.947
1196.375, 4334.986
1196.857, 4336.039
1197.340, 4297.552
1197.822, 4260.142
1198.304, 4266.997
1198.786, 4301.004
1199.268, 4361.502
1199.750, 4442.842
1200.232, 4452.745
1200.714, 4362.463
1201.197, 4299.939
1201.679, 4304.553
1202.161, 4334.734
1202.643, 4344.450
1203.125, 4342.959
1203.607, 4340.837
1204.089, 4339.194
1204.571, 4343.411
1205.053, 4357.488
1205.536, 4361.659
1206.018, 4342.334
1206.500, 4319.913
1206.982, 4328.917
1207.464, 4353.359
1207.946, 4368.986
1208.428, 4369.185
1208.910, 4366.316
1209.392, 4359.399
1209.875, 4353.768
1210.357, 4357.112
1210.839, 4357.809
1211.321, 4322.847
1211.803, 4276.315
1212.285, 4262.324
1212.767, 4313.276
1213.249, 4351.769
1213.732, 4377.573
1214.214, 4392.729
1214.696, 4397.317
1215.178, 4393.181
1215.660, 4376.608
1216.142, 4354.426
1216.624, 4342.898
1217.106, 4347.687
1217.589, 4361.813
1218.071, 4390.098
1218.553, 4409.982
1219.035, 4384.000
1219.517, 4349.395
1219.999, 4380.501
1220.481, 4452.371
1220.963, 4468.479
1221.445, 4365.741
1221.927, 4325.626
1222.410, 4381.188
1222.892, 4442.136
1223.374, 4393.843
1223.856, 4311.314
1224.338, 4303.939
1224.820, 4362.732
1225.302, 4401.636
1225.784, 4406.817
1226.267, 4401.999
1226.749, 4388.390
1227.231, 4374.026
1227.713, 4363.950
1228.195, 4361.245
1228.677, 4369.231
1229.159, 4388.565
1229.641, 4425.290
1230.124, 4494.978
1230.606, 4526.322
1231.088, 4498.325
1231.570, 4448.380
1232.052, 4404.565
1232.534, 4376.846
1233.016, 4384.617
1233.498, 4429.620
1233.980, 4458.876
1234.463, 4470.801
1234.945, 4464.830
1235.427, 4436.450
1235.909, 4403.150
1236.391, 4374.518
1236.873, 4361.080
1237.355, 4384.849
1237.837, 4451.363
1238.320, 4485.062
1238.802, 4480.275
1239.284, 4475.350
1239.766, 4487.455
1240.248, 4494.806
1240.730, 4449.338
1241.212, 4398.752
1241.694, 4410.543
1242.177, 4495.379
1242.659, 4531.826
1243.141, 4515.198
1243.623, 4495.061
1244.105, 4492.540
1244.587, 4493.934
1245.069, 4485.608
1245.551, 4473.749
1246.033, 4462.816
1246.516, 4451.550
1246.998, 4467.646
1247.480, 4512.514
1247.962, 4540.398
1248.444, 4516.067
1248.926, 4487.335
1249.408, 4498.536
1249.890, 4523.659
1250.372, 4528.562
1250.855, 4509.084
1251.337, 4528.152
1251.819, 4583.213
1252.301, 4619.732
1252.783, 4598.571
1253.265, 4561.619
1253.747, 4525.657
1254.229, 4494.342
1254.712, 4469.398
1255.194, 4450.200
1255.676, 4455.791
1256.158, 4482.984
1256.640, 4498.771
1257.122, 4460.290
1257.604, 4434.646
1258.086, 4476.614
1258.568, 4529.668
1259.051, 4532.515
1259.533, 4491.126
1260.015, 4473.477
1260.497, 4478.562
1260.979, 4489.089
1261.461, 4502.836
1261.943, 4511.266
1262.425, 4511.078
1262.907, 4505.254
1263.390, 4495.509
1263.872, 4482.583
1264.354, 4462.446
1264.836, 4439.518
1265.318, 4439.297
1265.800, 4504.830
1266.282, 4549.974
1266.764, 4553.434
1267.247, 4540.833
1267.729, 4539.801
1268.211, 4545.463
1268.693, 4546.185
1269.175, 4541.626
1269.657, 4533.918
1270.139, 4513.608
1270.621, 4507.235
1271.104, 4521.764
1271.586, 4541.066
1272.068, 4546.497
1272.550, 4544.793
1273.032, 4545.944
1273.514, 4550.684
1273.996, 4560.065
1274.478, 4580.107
1274.960, 4588.032
1275.443, 4578.137
1275.925, 4566.615
1276.407, 4571.561
1276.889, 4583.923
1277.371, 4592.503
1277.853, 4598.334
1278.335, 4610.671
1278.817, 4632.950
1279.299, 4650.199
1279.782, 4661.605
1280.264, 4658.736
1280.746, 4619.060
1281.228, 4573.998
1281.710, 4543.509
1282.192, 4533.139
1282.674, 4560.563
1283.156, 4629.312
1283.639, 4679.880
1284.121, 4702.913
1284.603, 4708.537
1285.085, 4691.575
1285.567, 4672.572
1286.049, 4665.071
1286.531, 4665.287
1287.013, 4668.461
1287.495, 4673.176
1287.978, 4662.294
1288.460, 4632.649
1288.942, 4609.199
1289.424, 4615.759
1289.906, 4620.668
1290.388, 4610.104
1290.870, 4591.560
1291.352, 4573.842
1291.834, 4561.411
1292.317, 4573.550
1292.799, 4613.078
1293.281, 4643.682
1293.763, 4641.040
1294.245, 4643.329
1294.727, 4663.537
1295.209, 4685.061
1295.691, 4682.455
1296.174, 4662.261
1296.656, 4622.384
1297.138, 4562.809
1297.620, 4564.601
1298.102, 4663.954
1298.584, 4736.732
1299.066, 4751.126
1299.548, 4737.963
1300.031, 4723.154
1300.513, 4711.992
1300.995, 4715.125
1301.477, 4731.683
1301.959, 4730.873
1302.441, 4709.030
1302.923, 4698.593
1303.405, 4708.861
1303.887, 4721.083
1304.370, 4715.650
1304.852, 4706.676
1305.334, 4706.064
1305.816, 4711.925
1306.298, 4720.331
1306.780, 4730.655
##END=



