##NAMES=Magnesiocoulsonite
##RRUFFID=R070218
##IDEAL CHEMISTRY=MgV^3+^_2_O_4_
##LOCALITY=Pereval Marble Quarry, Sludyanka (Slyudyanka), Baikal area, Buriatia (Buryatia) Republic, Transbaikalia (Zabaykalye), Eastern-Siberian Region, Russia
##OWNER=RRUFF
##SOURCE=Michael Scott
##DESCRIPTION=Black grains with internal hints of red
##STATUS=The identification of this mineral has been confirmed only by single crystal X-ray diffraction.
##URL=rruff.info/R070218
181.4815, 13513.61
181.9637, 13551.03
182.4458, 13578.57
182.9279, 13594.82
183.4100, 13603.11
183.8921, 13616.83
184.3742, 13644.12
184.8564, 13677.42
185.3385, 13695.35
185.8206, 13696.86
186.3027, 13697.69
186.7848, 13712.11
187.2669, 13739.61
187.7491, 13776.92
188.2312, 13829.34
188.7133, 13890.75
189.1954, 13939.36
189.6775, 13974.00
190.1596, 13999.57
190.6418, 14022.78
191.1239, 14043.37
191.6060, 14056.55
192.0881, 14055.62
192.5702, 14042.93
193.0524, 14037.44
193.5345, 14037.93
194.0166, 14048.64
194.4987, 14086.08
194.9808, 14153.06
195.4629, 14204.44
195.9451, 14207.69
196.4272, 14164.16
196.9093, 14144.42
197.3914, 14154.54
197.8735, 14182.36
198.3556, 14205.04
198.8378, 14221.12
199.3199, 14240.73
199.8020, 14271.57
200.2841, 14314.40
200.7662, 14353.20
201.2483, 14387.78
201.7305, 14417.15
202.2126, 14436.79
202.6947, 14444.09
203.1768, 14451.28
203.6589, 14468.34
204.1410, 14497.82
204.6232, 14514.27
205.1053, 14504.05
205.5874, 14484.30
206.0695, 14524.42
206.5516, 14649.35
207.0337, 14768.62
207.5159, 14811.34
207.9980, 14757.24
208.4801, 14720.05
208.9622, 14717.20
209.4443, 14741.75
209.9264, 14759.60
210.4086, 14768.39
210.8907, 14775.27
211.3728, 14783.41
211.8549, 14789.70
212.3370, 14810.20
212.8191, 14857.06
213.3013, 14923.58
213.7834, 14951.79
214.2655, 14924.44
214.7476, 14886.41
215.2297, 14878.66
215.7118, 14913.58
216.1940, 14944.66
216.6761, 14965.10
217.1582, 14975.06
217.6403, 14971.49
218.1224, 14942.56
218.6045, 14915.92
219.0867, 14921.87
219.5688, 14976.57
220.0509, 15025.64
220.5330, 15055.93
221.0151, 15067.44
221.4972, 15080.60
221.9794, 15097.64
222.4615, 15113.99
222.9436, 15123.41
223.4257, 15119.08
223.9078, 15122.45
224.3899, 15141.84
224.8721, 15179.71
225.3542, 15202.79
225.8363, 15200.10
226.3184, 15193.20
226.8005, 15210.72
227.2827, 15270.16
227.7648, 15320.39
228.2469, 15347.53
228.7290, 15348.90
229.2111, 15346.56
229.6932, 15335.70
230.1754, 15325.05
230.6575, 15327.81
231.1396, 15354.82
231.6217, 15375.44
232.1038, 15374.96
232.5859, 15343.39
233.0681, 15347.75
233.5502, 15409.49
234.0323, 15491.61
234.5144, 15538.74
234.9965, 15527.42
235.4786, 15520.37
235.9608, 15540.95
236.4429, 15599.86
236.9250, 15633.91
237.4071, 15629.04
237.8892, 15607.77
238.3713, 15607.86
238.8535, 15646.83
239.3356, 15677.49
239.8177, 15679.49
240.2998, 15638.23
240.7819, 15626.67
241.2640, 15661.46
241.7462, 15716.06
242.2283, 15743.57
242.7104, 15728.40
243.1925, 15711.63
243.6746, 15705.42
244.1567, 15709.93
244.6389, 15725.95
245.1210, 15759.65
245.6031, 15801.11
246.0852, 15833.25
246.5673, 15856.10
247.0494, 15869.39
247.5316, 15869.21
248.0137, 15846.17
248.4958, 15842.98
248.9779, 15869.10
249.4600, 15909.82
249.9421, 15935.91
250.4243, 15937.39
250.9064, 15942.38
251.3885, 15961.17
251.8706, 15996.47
252.3527, 16040.37
252.8348, 16107.56
253.3170, 16174.29
253.7991, 16188.72
254.2812, 16122.22
254.7633, 16057.92
255.2454, 16026.82
255.7275, 16035.99
256.2097, 16054.67
256.6918, 16088.13
257.1739, 16127.29
257.6560, 16155.94
258.1381, 16172.64
258.6202, 16181.74
259.1024, 16182.54
259.5845, 16170.96
260.0666, 16168.10
260.5487, 16175.19
261.0308, 16190.10
261.5129, 16211.25
261.9951, 16242.62
262.4772, 16270.25
262.9593, 16288.76
263.4414, 16297.91
263.9235, 16296.75
264.4056, 16275.17
264.8878, 16252.81
265.3699, 16272.30
265.8520, 16354.59
266.3341, 16419.14
266.8162, 16424.49
267.2983, 16355.64
267.7805, 16326.11
268.2626, 16347.02
268.7447, 16395.37
269.2268, 16435.64
269.7089, 16469.44
270.1910, 16489.25
270.6732, 16488.51
271.1553, 16464.60
271.6374, 16442.80
272.1195, 16418.30
272.6016, 16402.97
273.0837, 16423.16
273.5659, 16486.79
274.0480, 16545.72
274.5301, 16581.03
275.0122, 16591.78
275.4943, 16598.49
275.9764, 16599.59
276.4586, 16599.58
276.9407, 16606.04
277.4228, 16619.66
277.9049, 16632.92
278.3870, 16641.56
278.8691, 16645.96
279.3513, 16656.40
279.8334, 16674.70
280.3155, 16694.39
280.7976, 16706.59
281.2798, 16710.99
281.7619, 16712.81
282.2440, 16707.70
282.7261, 16699.04
283.2082, 16719.59
283.6903, 16776.12
284.1725, 16836.94
284.6546, 16858.90
285.1367, 16843.26
285.6188, 16827.44
286.1009, 16823.75
286.5830, 16830.49
287.0652, 16844.75
287.5473, 16868.66
288.0294, 16886.62
288.5115, 16868.21
288.9936, 16819.90
289.4757, 16796.37
289.9579, 16830.56
290.4400, 16898.86
290.9221, 16934.38
291.4042, 16935.25
291.8863, 16926.85
292.3684, 16926.95
292.8506, 16937.22
293.3327, 16966.89
293.8148, 17038.19
294.2969, 17119.75
294.7790, 17140.82
295.2611, 17101.29
295.7433, 17057.32
296.2254, 17058.30
296.7075, 17093.66
297.1896, 17134.65
297.6717, 17182.45
298.1538, 17224.29
298.6360, 17233.91
299.1181, 17213.79
299.6002, 17192.08
300.0823, 17189.32
300.5644, 17200.29
301.0465, 17216.23
301.5287, 17239.67
302.0108, 17261.07
302.4929, 17263.16
302.9750, 17249.92
303.4571, 17244.00
303.9392, 17268.75
304.4214, 17307.57
304.9035, 17338.50
305.3856, 17353.56
305.8677, 17362.75
306.3498, 17370.53
306.8319, 17378.31
307.3141, 17391.41
307.7962, 17420.37
308.2783, 17452.52
308.7604, 17474.35
309.2425, 17477.96
309.7246, 17481.40
310.2068, 17500.46
310.6889, 17528.92
311.1710, 17550.85
311.6531, 17551.04
312.1352, 17546.36
312.6173, 17552.30
313.0995, 17578.63
313.5816, 17594.05
314.0637, 17569.31
314.5458, 17524.37
315.0279, 17496.60
315.5100, 17519.16
315.9922, 17548.48
316.4743, 17558.02
316.9564, 17537.72
317.4385, 17526.77
317.9206, 17541.28
318.4027, 17572.15
318.8849, 17606.72
319.3670, 17652.54
319.8491, 17691.84
320.3312, 17716.64
320.8133, 17724.52
321.2954, 17729.52
321.7776, 17732.07
322.2597, 17734.03
322.7418, 17737.36
323.2239, 17734.85
323.7060, 17741.21
324.1881, 17766.86
324.6703, 17814.88
325.1524, 17845.56
325.6345, 17830.24
326.1166, 17809.96
326.5987, 17817.95
327.0808, 17894.40
327.5630, 17951.92
328.0451, 17975.10
328.5272, 17965.54
329.0093, 17958.08
329.4914, 17955.72
329.9735, 17952.92
330.4557, 17944.74
330.9378, 17918.84
331.4199, 17909.65
331.9020, 17925.21
332.3841, 17960.36
332.8662, 17990.71
333.3484, 18016.48
333.8305, 18036.68
334.3126, 18048.79
334.7947, 18047.06
335.2768, 18056.00
335.7589, 18082.81
336.2411, 18117.63
336.7232, 18134.39
337.2053, 18127.42
337.6874, 18118.58
338.1695, 18116.05
338.6516, 18119.33
339.1338, 18135.67
339.6159, 18169.48
340.0980, 18209.39
340.5801, 18233.74
341.0622, 18241.07
341.5443, 18249.16
342.0265, 18267.65
342.5086, 18294.77
342.9907, 18314.35
343.4728, 18325.08
343.9549, 18332.79
344.4370, 18343.72
344.9192, 18357.65
345.4013, 18373.46
345.8834, 18391.67
346.3655, 18411.04
346.8476, 18429.27
347.3297, 18446.46
347.8119, 18457.97
348.2940, 18450.59
348.7761, 18432.67
349.2582, 18430.62
349.7403, 18460.93
350.2225, 18501.17
350.7046, 18517.55
351.1867, 18512.71
351.6688, 18505.95
352.1509, 18507.86
352.6331, 18517.56
353.1152, 18534.49
353.5973, 18560.64
354.0794, 18589.97
354.5615, 18623.97
355.0436, 18658.19
355.5258, 18679.10
356.0079, 18658.82
356.4900, 18633.32
356.9721, 18638.22
357.4542, 18688.23
357.9363, 18737.38
358.4185, 18762.63
358.9006, 18769.31
359.3827, 18766.59
359.8648, 18749.50
360.3469, 18730.71
360.8290, 18712.93
361.3112, 18694.41
361.7933, 18691.97
362.2754, 18727.83
362.7575, 18776.07
363.2396, 18808.64
363.7217, 18805.22
364.2039, 18799.07
364.6860, 18795.33
365.1681, 18794.26
365.6502, 18803.16
366.1323, 18825.97
366.6144, 18857.08
367.0966, 18892.95
367.5787, 18951.72
368.0608, 18992.06
368.5429, 19001.93
369.0250, 18988.34
369.5071, 18987.64
369.9893, 19012.43
370.4714, 19035.47
370.9535, 19042.44
371.4356, 19023.38
371.9177, 19010.26
372.3998, 19002.01
372.8820, 19000.68
373.3641, 19013.68
373.8462, 19048.21
374.3283, 19078.27
374.8104, 19091.62
375.2925, 19086.69
375.7747, 19082.54
376.2568, 19075.53
376.7389, 19076.48
377.2210, 19108.85
377.7031, 19175.95
378.1852, 19225.79
378.6674, 19236.88
379.1495, 19218.40
379.6316, 19207.90
380.1137, 19205.50
380.5958, 19210.78
381.0779, 19227.73
381.5601, 19253.78
382.0422, 19275.20
382.5243, 19290.01
383.0064, 19297.94
383.4885, 19298.98
383.9706, 19293.06
384.4528, 19279.58
384.9349, 19237.61
385.4170, 19192.90
385.8991, 19193.74
386.3812, 19258.25
386.8633, 19333.04
387.3455, 19364.83
387.8276, 19368.52
388.3097, 19378.68
388.7918, 19427.80
389.2739, 19480.56
389.7560, 19503.14
390.2382, 19490.11
390.7203, 19481.63
391.2024, 19514.58
391.6845, 19558.80
392.1666, 19579.89
392.6487, 19529.76
393.1309, 19488.54
393.6130, 19496.84
394.0951, 19550.29
394.5772, 19593.43
395.0593, 19605.10
395.5414, 19606.52
396.0236, 19610.78
396.5057, 19620.85
396.9878, 19632.50
397.4699, 19643.60
397.9520, 19655.76
398.4341, 19674.05
398.9163, 19705.70
399.3984, 19736.00
399.8805, 19760.31
400.3626, 19779.08
400.8447, 19790.19
401.3268, 19791.17
401.8090, 19786.30
402.2911, 19779.02
402.7732, 19763.36
403.2553, 19762.18
403.7374, 19789.21
404.2195, 19841.62
404.7017, 19864.47
405.1838, 19850.74
405.6659, 19826.34
406.1480, 19810.20
406.6301, 19802.10
407.1122, 19812.00
407.5944, 19848.42
408.0765, 19897.01
408.5586, 19921.95
409.0407, 19923.73
409.5228, 19919.61
410.0049, 19914.75
410.4871, 19912.65
410.9692, 19924.89
411.4513, 19954.44
411.9334, 19991.31
412.4155, 20030.07
412.8976, 20068.29
413.3798, 20097.70
413.8619, 20103.22
414.3440, 20105.26
414.8261, 20137.36
415.3082, 20199.76
415.7903, 20238.03
416.2725, 20181.81
416.7546, 20095.14
417.2367, 20049.82
417.7188, 20095.07
418.2009, 20158.01
418.6830, 20217.28
419.1652, 20270.29
419.6473, 20305.19
420.1294, 20298.82
420.6115, 20287.87
421.0937, 20295.18
421.5758, 20340.66
422.0579, 20367.41
422.5400, 20349.26
423.0221, 20311.96
423.5042, 20297.65
423.9864, 20330.46
424.4685, 20360.95
424.9506, 20380.06
425.4327, 20387.45
425.9148, 20381.80
426.3969, 20346.47
426.8791, 20317.06
427.3612, 20329.69
427.8433, 20401.60
428.3254, 20461.13
428.8075, 20496.89
429.2896, 20513.96
429.7718, 20529.79
430.2539, 20545.90
430.7360, 20553.32
431.2181, 20535.26
431.7002, 20495.41
432.1823, 20494.96
432.6645, 20545.33
433.1466, 20607.23
433.6287, 20621.38
434.1108, 20596.54
434.5929, 20576.13
435.0750, 20580.01
435.5572, 20598.72
436.0393, 20619.86
436.5214, 20643.03
437.0035, 20660.25
437.4856, 20651.47
437.9677, 20636.75
438.4499, 20648.04
438.9320, 20712.63
439.4141, 20772.38
439.8962, 20768.75
440.3783, 20726.32
440.8604, 20708.36
441.3426, 20789.00
441.8247, 20867.23
442.3068, 20871.99
442.7889, 20773.77
443.2710, 20707.70
443.7531, 20743.11
444.2353, 20816.07
444.7174, 20856.49
445.1995, 20821.65
445.6816, 20789.10
446.1637, 20765.07
446.6458, 20750.91
447.1280, 20761.96
447.6101, 20814.35
448.0922, 20874.36
448.5743, 20926.30
449.0564, 20978.12
449.5385, 20997.90
450.0207, 20970.21
450.5028, 20923.52
450.9849, 20915.32
451.4670, 20953.29
451.9491, 20991.38
452.4312, 21013.98
452.9134, 21021.81
453.3955, 21016.14
453.8776, 20994.30
454.3597, 20978.08
454.8418, 21001.66
455.3239, 21052.78
455.8061, 21076.69
456.2882, 21051.20
456.7703, 21008.87
457.2524, 20991.97
457.7345, 20997.70
458.2166, 21014.66
458.6988, 21042.75
459.1809, 21075.21
459.6630, 21105.04
460.1451, 21131.96
460.6272, 21155.38
461.1093, 21180.94
461.5915, 21200.91
462.0736, 21205.04
462.5557, 21157.77
463.0378, 21125.65
463.5199, 21148.44
464.0020, 21217.00
464.4842, 21262.24
464.9663, 21249.29
465.4484, 21224.11
465.9305, 21210.71
466.4126, 21216.32
466.8947, 21222.49
467.3769, 21228.78
467.8590, 21235.79
468.3411, 21244.86
468.8232, 21257.23
469.3053, 21269.19
469.7874, 21280.08
470.2696, 21289.86
470.7517, 21296.28
471.2338, 21296.87
471.7159, 21301.57
472.1980, 21324.78
472.6801, 21365.83
473.1623, 21390.69
473.6444, 21392.19
474.1265, 21380.56
474.6086, 21367.85
475.0907, 21355.33
475.5728, 21351.26
476.0550, 21365.21
476.5371, 21388.65
477.0192, 21410.13
477.5013, 21429.44
477.9834, 21441.84
478.4655, 21431.50
478.9477, 21415.86
479.4298, 21418.43
479.9119, 21457.35
480.3940, 21501.98
480.8761, 21545.40
481.3582, 21583.12
481.8404, 21601.40
482.3225, 21568.52
482.8046, 21537.67
483.2867, 21537.07
483.7688, 21581.57
484.2509, 21612.98
484.7331, 21617.15
485.2152, 21610.73
485.6973, 21608.77
486.1794, 21611.55
486.6615, 21618.91
487.1436, 21634.26
487.6258, 21654.38
488.1079, 21661.27
488.5900, 21648.48
489.0721, 21640.28
489.5542, 21654.02
490.0363, 21689.99
490.5185, 21715.28
491.0006, 21727.49
491.4827, 21733.53
491.9648, 21743.00
492.4470, 21754.54
492.9291, 21759.52
493.4112, 21747.81
493.8933, 21734.07
494.3754, 21745.39
494.8575, 21778.24
495.3397, 21809.79
495.8218, 21819.18
496.3039, 21822.61
496.7860, 21842.14
497.2681, 21888.71
497.7502, 21921.99
498.2324, 21900.61
498.7145, 21858.82
499.1966, 21842.78
499.6787, 21904.90
500.1608, 21955.86
500.6429, 21956.96
501.1251, 21912.08
501.6072, 21891.54
502.0893, 21926.20
502.5714, 21962.92
503.0535, 21973.75
503.5356, 21934.83
504.0178, 21929.45
504.4999, 21973.27
504.9820, 22036.50
505.4641, 22074.13
505.9462, 22082.14
506.4283, 22084.55
506.9105, 22085.11
507.3926, 22085.92
507.8747, 22099.50
508.3568, 22126.84
508.8389, 22149.05
509.3210, 22143.15
509.8032, 22121.55
510.2853, 22120.84
510.7674, 22148.74
511.2495, 22184.00
511.7316, 22209.94
512.2137, 22226.95
512.6959, 22235.58
513.1780, 22219.86
513.6601, 22209.51
514.1422, 22232.43
514.6243, 22282.99
515.1064, 22321.97
515.5886, 22329.38
516.0707, 22323.74
516.5528, 22313.34
517.0349, 22286.40
517.5170, 22281.44
517.9991, 22327.01
518.4813, 22386.87
518.9634, 22413.96
519.4455, 22388.20
519.9276, 22363.19
520.4097, 22344.37
520.8918, 22334.14
521.3740, 22353.71
521.8561, 22414.31
522.3382, 22467.52
522.8203, 22468.90
523.3024, 22423.23
523.7845, 22422.30
524.2667, 22480.88
524.7488, 22547.19
525.2309, 22548.83
525.7130, 22503.52
526.1951, 22473.49
526.6772, 22488.95
527.1594, 22521.68
527.6415, 22534.83
528.1236, 22534.41
528.6057, 22547.26
529.0878, 22611.81
529.5699, 22680.20
530.0521, 22712.58
530.5342, 22696.80
531.0163, 22678.77
531.4984, 22673.66
531.9805, 22673.39
532.4626, 22669.35
532.9448, 22646.41
533.4269, 22636.67
533.9090, 22647.97
534.3911, 22675.53
534.8732, 22701.50
535.3553, 22729.29
535.8375, 22749.44
536.3196, 22754.92
536.8017, 22744.77
537.2838, 22741.07
537.7659, 22743.55
538.2480, 22753.37
538.7302, 22777.85
539.2123, 22813.88
539.6944, 22836.15
540.1765, 22833.33
540.6586, 22825.17
541.1407, 22844.77
541.6229, 22884.39
542.1050, 22916.51
542.5871, 22918.54
543.0692, 22911.61
543.5513, 22909.50
544.0334, 22913.23
544.5156, 22933.34
544.9977, 23002.36
545.4798, 23073.93
545.9619, 23109.54
546.4440, 23073.65
546.9261, 23043.79
547.4083, 23030.22
547.8904, 23029.32
548.3725, 23035.66
548.8546, 23057.27
549.3367, 23072.83
549.8188, 23075.84
550.3010, 23067.38
550.7831, 23056.69
551.2652, 23039.30
551.7473, 23034.58
552.2294, 23064.51
552.7115, 23124.76
553.1937, 23171.33
553.6758, 23200.31
554.1579, 23217.29
554.6400, 23219.58
555.1221, 23214.48
555.6042, 23223.48
556.0864, 23265.99
556.5685, 23314.10
557.0506, 23342.18
557.5327, 23353.17
558.0148, 23357.32
558.4969, 23354.75
558.9791, 23350.54
559.4612, 23346.14
559.9433, 23340.23
560.4254, 23342.00
560.9075, 23357.02
561.3896, 23378.37
561.8718, 23400.72
562.3539, 23432.18
562.8360, 23449.21
563.3181, 23439.53
563.8002, 23419.26
564.2823, 23432.58
564.7645, 23488.36
565.2466, 23537.51
565.7287, 23560.40
566.2108, 23560.61
566.6929, 23549.27
567.1750, 23525.71
567.6572, 23507.74
568.1393, 23517.12
568.6214, 23541.93
569.1035, 23556.02
569.5856, 23552.24
570.0677, 23550.72
570.5499, 23577.68
571.0320, 23616.03
571.5141, 23638.95
571.9962, 23608.84
572.4783, 23589.08
572.9604, 23623.20
573.4426, 23696.56
573.9247, 23733.25
574.4068, 23674.63
574.8889, 23619.26
575.3710, 23606.88
575.8531, 23646.78
576.3353, 23680.40
576.8174, 23702.63
577.2995, 23725.71
577.7816, 23770.80
578.2637, 23842.92
578.7458, 23875.08
579.2280, 23847.72
579.7101, 23794.44
580.1922, 23767.44
580.6743, 23765.82
581.1564, 23784.46
581.6385, 23839.23
582.1207, 23903.20
582.6028, 23936.94
583.0849, 23943.62
583.5670, 23950.41
584.0491, 23977.99
584.5313, 24009.00
585.0134, 24030.44
585.4955, 24039.61
585.9776, 24041.39
586.4597, 24024.32
586.9418, 24005.79
587.4240, 24006.37
587.9061, 24042.78
588.3882, 24072.88
588.8703, 24092.12
589.3524, 24102.21
589.8345, 24105.47
590.3167, 24098.27
590.7988, 24098.65
591.2809, 24119.54
591.7630, 24155.19
592.2451, 24172.93
592.7272, 24172.18
593.2094, 24168.34
593.6915, 24171.72
594.1736, 24181.68
594.6557, 24196.94
595.1378, 24216.80
595.6199, 24242.88
596.1021, 24288.33
596.5842, 24337.51
597.0663, 24368.20
597.5485, 24358.05
598.0306, 24343.56
598.5127, 24331.32
598.9948, 24322.97
599.4769, 24324.99
599.9590, 24350.42
600.4412, 24370.62
600.9233, 24373.15
601.4054, 24356.13
601.8875, 24350.87
602.3696, 24357.57
602.8517, 24375.80
603.3339, 24411.41
603.8160, 24462.52
604.2981, 24500.40
604.7802, 24521.40
605.2623, 24529.05
605.7444, 24521.46
606.2266, 24503.43
606.7087, 24487.97
607.1908, 24475.70
607.6729, 24471.83
608.1550, 24485.51
608.6371, 24511.82
609.1193, 24535.20
609.6014, 24538.24
610.0835, 24546.39
610.5656, 24574.71
611.0477, 24627.48
611.5298, 24674.09
612.0120, 24716.75
612.4941, 24749.45
612.9762, 24765.82
613.4583, 24760.40
613.9404, 24758.82
614.4225, 24763.50
614.9047, 24769.69
615.3868, 24767.04
615.8689, 24756.89
616.3510, 24757.38
616.8331, 24776.25
617.3152, 24805.13
617.7974, 24838.23
618.2795, 24871.99
618.7616, 24894.48
619.2437, 24881.93
619.7258, 24868.28
620.2079, 24885.80
620.6901, 24935.60
621.1722, 24973.26
621.6543, 24978.23
622.1364, 24969.66
622.6185, 24957.57
623.1006, 24931.95
623.5828, 24927.88
624.0649, 24957.72
624.5470, 24997.79
625.0291, 25015.50
625.5112, 25003.29
625.9933, 25013.39
626.4755, 25065.81
626.9576, 25130.96
627.4397, 25139.86
627.9218, 25099.23
628.4039, 25060.38
628.8860, 25038.42
629.3682, 25038.10
629.8503, 25079.41
630.3324, 25156.14
630.8145, 25221.63
631.2966, 25249.31
631.7787, 25254.91
632.2609, 25246.84
632.7430, 25223.37
633.2251, 25197.46
633.7072, 25155.71
634.1893, 25122.80
634.6714, 25119.90
635.1536, 25158.90
635.6357, 25205.02
636.1178, 25265.44
636.5999, 25321.22
637.0820, 25328.82
637.5641, 25285.92
638.0463, 25248.61
638.5284, 25229.45
639.0105, 25231.64
639.4926, 25280.38
639.9747, 25365.33
640.4568, 25425.41
640.9390, 25401.81
641.4211, 25351.17
641.9032, 25325.22
642.3853, 25327.71
642.8674, 25333.97
643.3495, 25330.84
643.8317, 25330.30
644.3138, 25340.58
644.7959, 25364.28
645.2780, 25398.81
645.7601, 25466.55
646.2422, 25525.49
646.7244, 25511.47
647.2065, 25401.50
647.6886, 25342.03
648.1707, 25370.21
648.6528, 25445.76
649.1349, 25495.24
649.6171, 25520.40
650.0992, 25535.61
650.5813, 25541.18
651.0634, 25544.42
651.5455, 25559.51
652.0276, 25582.83
652.5098, 25594.04
652.9919, 25569.23
653.4740, 25539.11
653.9561, 25525.60
654.4382, 25535.29
654.9203, 25533.31
655.4025, 25478.83
655.8846, 25441.08
656.3667, 25475.43
656.8488, 25621.00
657.3309, 25718.32
657.8130, 25751.87
658.2952, 25755.56
658.7773, 25781.16
659.2594, 25825.31
659.7415, 25842.54
660.2236, 25812.28
660.7057, 25764.20
661.1879, 25731.77
661.6700, 25715.55
662.1521, 25717.83
662.6342, 25756.45
663.1163, 25799.47
663.5984, 25834.32
664.0806, 25858.82
664.5627, 25861.23
665.0448, 25816.85
665.5269, 25769.18
666.0090, 25731.44
666.4911, 25700.85
666.9733, 25709.29
667.4554, 25776.91
667.9375, 25843.57
668.4196, 25846.78
668.9017, 25789.64
669.3839, 25775.82
669.8660, 25820.95
670.3481, 25879.51
670.8302, 25895.18
671.3123, 25884.54
671.7944, 25884.19
672.2766, 25911.58
672.7587, 25942.04
673.2408, 25962.74
673.7229, 25974.61
674.2050, 25979.88
674.6871, 25958.47
675.1693, 25953.20
675.6514, 25990.98
676.1335, 26058.99
676.6156, 26086.38
677.0977, 26056.06
677.5798, 26024.05
678.0620, 26016.85
678.5441, 26031.16
679.0262, 26031.54
679.5083, 26016.69
679.9904, 26009.17
680.4725, 26042.40
680.9547, 26090.64
681.4368, 26101.74
681.9189, 26065.31
682.4010, 26033.25
682.8831, 26046.84
683.3652, 26079.54
683.8474, 26105.06
684.3295, 26118.66
684.8116, 26123.16
685.2937, 26117.81
685.7758, 26104.04
686.2579, 26079.78
686.7401, 26033.60
687.2222, 26010.51
687.7043, 26026.13
688.1864, 26062.47
688.6685, 26074.38
689.1506, 26063.38
689.6328, 26054.13
690.1149, 26056.49
690.5970, 26067.77
691.0791, 26086.78
691.5612, 26112.19
692.0433, 26136.58
692.5255, 26147.14
693.0076, 26163.01
693.4897, 26206.36
693.9718, 26283.34
694.4539, 26327.31
694.9360, 26319.31
695.4182, 26285.25
695.9003, 26224.67
696.3824, 26113.76
696.8645, 26096.56
697.3466, 26202.38
697.8287, 26325.02
698.3109, 26334.70
698.7930, 26254.41
699.2751, 26205.97
699.7572, 26212.94
700.2393, 26247.93
700.7214, 26304.77
701.2036, 26365.57
701.6857, 26400.16
702.1678, 26379.14
702.6499, 26351.90
703.1320, 26332.06
703.6141, 26319.59
704.0963, 26314.58
704.5784, 26319.79
705.0605, 26328.49
705.5426, 26346.35
706.0247, 26366.07
706.5068, 26345.15
706.9890, 26276.76
707.4711, 26224.07
707.9532, 26233.91
708.4353, 26280.47
708.9174, 26286.38
709.3995, 26257.39
709.8817, 26250.24
710.3638, 26334.91
710.8459, 26438.62
711.3280, 26496.01
711.8101, 26497.11
712.2922, 26483.88
712.7744, 26442.49
713.2565, 26410.00
713.7386, 26414.15
714.2207, 26482.04
714.7028, 26512.23
715.1849, 26488.86
715.6671, 26455.87
716.1492, 26463.84
716.6313, 26509.79
717.1134, 26563.97
717.5955, 26627.02
718.0776, 26677.11
718.5598, 26679.15
719.0419, 26649.15
719.5240, 26617.80
720.0061, 26590.79
720.4882, 26571.02
720.9703, 26554.26
721.4525, 26545.92
721.9346, 26558.63
722.4167, 26631.38
722.8988, 26674.66
723.3809, 26653.66
723.8630, 26592.63
724.3452, 26601.10
724.8273, 26691.05
725.3094, 26763.53
725.7915, 26755.14
726.2736, 26701.65
726.7557, 26700.39
727.2379, 26745.20
727.7200, 26787.55
728.2021, 26801.45
728.6842, 26795.74
729.1663, 26763.11
729.6484, 26701.71
730.1306, 26677.94
730.6127, 26753.64
731.0948, 26836.83
731.5769, 26875.06
732.0590, 26855.02
732.5411, 26846.96
733.0233, 26853.42
733.5054, 26866.25
733.9875, 26888.04
734.4696, 26913.91
734.9517, 26898.06
735.4338, 26828.25
735.9160, 26759.88
736.3981, 26763.28
736.8802, 26800.03
737.3623, 26807.92
737.8444, 26735.89
738.3266, 26700.38
738.8087, 26794.62
739.2908, 26935.47
739.7729, 26998.08
740.2551, 26928.00
740.7372, 26871.48
741.2193, 26843.70
741.7014, 26839.41
742.1835, 26849.46
742.6656, 26873.93
743.1478, 26912.24
743.6299, 26980.65
744.1120, 27042.49
744.5941, 27019.75
745.0762, 26938.45
745.5583, 26878.79
746.0405, 26905.13
746.5226, 26941.52
747.0047, 26940.62
747.4868, 26910.04
747.9689, 26899.54
748.4510, 26928.60
748.9332, 26961.36
749.4153, 26991.35
749.8974, 27017.13
750.3795, 27014.80
750.8616, 26978.65
751.3438, 26958.17
751.8259, 27001.59
752.3080, 27080.16
752.7901, 27127.66
753.2722, 27143.05
753.7543, 27144.15
754.2365, 27125.34
754.7186, 27109.22
755.2007, 27121.42
755.6828, 27173.62
756.1649, 27200.10
756.6470, 27171.43
757.1292, 27130.49
757.6113, 27101.03
758.0934, 27084.14
758.5755, 27073.54
759.0576, 27068.59
759.5397, 27071.80
760.0219, 27086.75
760.5040, 27112.05
760.9861, 27148.04
761.4682, 27198.67
761.9503, 27236.49
762.4324, 27226.48
762.9146, 27197.18
763.3967, 27182.59
763.8788, 27201.89
764.3609, 27218.38
764.8430, 27222.81
765.3251, 27223.31
765.8073, 27229.10
766.2894, 27241.30
766.7715, 27254.51
767.2536, 27268.52
767.7357, 27282.15
768.2178, 27291.15
768.7000, 27297.52
769.1821, 27310.49
769.6642, 27339.44
770.1463, 27365.81
770.6284, 27366.58
771.1105, 27354.17
771.5927, 27352.60
772.0748, 27392.69
772.5569, 27416.64
773.0390, 27395.98
773.5211, 27352.81
774.0032, 27345.85
774.4854, 27384.93
774.9675, 27425.60
775.4496, 27462.99
775.9317, 27486.12
776.4138, 27447.92
776.8959, 27362.04
777.3781, 27300.68
777.8602, 27310.41
778.3423, 27353.91
778.8244, 27414.32
779.3065, 27484.98
779.7886, 27540.29
780.2708, 27590.34
780.7529, 27602.36
781.2350, 27549.82
781.7171, 27443.55
782.1992, 27388.34
782.6813, 27393.85
783.1635, 27413.90
783.6456, 27425.32
784.1277, 27433.23
784.6098, 27462.16
785.0919, 27508.93
785.5740, 27543.12
786.0562, 27536.06
786.5383, 27514.99
787.0204, 27500.38
787.5025, 27493.63
787.9846, 27491.12
788.4667, 27495.49
788.9489, 27500.56
789.4310, 27502.29
789.9131, 27499.96
790.3952, 27508.24
790.8773, 27528.38
791.3594, 27553.13
791.8416, 27583.03
792.3237, 27612.47
792.8058, 27622.35
793.2879, 27612.18
793.7700, 27603.21
794.2521, 27617.38
794.7343, 27634.17
795.2164, 27632.41
795.6985, 27601.63
796.1806, 27590.15
796.6627, 27609.63
797.1448, 27641.37
797.6270, 27679.96
798.1091, 27730.09
798.5912, 27744.70
799.0733, 27719.34
799.5554, 27681.33
800.0375, 27648.88
800.5197, 27625.15
801.0018, 27617.83
801.4839, 27629.00
801.9660, 27648.34
802.4481, 27675.35
802.9302, 27704.23
803.4124, 27730.29
803.8945, 27752.92
804.3766, 27772.35
804.8587, 27788.67
805.3408, 27801.62
805.8229, 27812.56
806.3051, 27821.44
806.7872, 27817.36
807.2693, 27797.65
807.7514, 27775.50
808.2335, 27759.86
808.7156, 27752.06
809.1978, 27755.75
809.6799, 27775.00
810.1620, 27794.50
810.6441, 27808.89
811.1262, 27819.96
811.6083, 27828.81
812.0905, 27831.51
812.5726, 27842.41
813.0547, 27864.96
813.5368, 27889.41
814.0189, 27900.40
814.5010, 27901.53
814.9832, 27918.56
815.4653, 27960.34
815.9474, 27994.64
816.4295, 27985.27
816.9116, 27953.85
817.3937, 27924.68
817.8759, 27891.10
818.3580, 27885.59
818.8401, 27944.83
819.3222, 28015.40
819.8043, 28047.31
820.2864, 28033.93
820.7686, 28008.43
821.2507, 27969.04
821.7328, 27932.70
822.2149, 27926.72
822.6970, 27941.23
823.1791, 27949.73
823.6613, 27942.69
824.1434, 27940.84
824.6255, 27948.95
825.1076, 27973.88
825.5897, 28023.17
826.0718, 28160.13
826.5540, 28228.78
827.0361, 28204.22
827.5182, 28140.91
828.0003, 28098.13
828.4824, 28076.12
828.9645, 28066.16
829.4467, 28067.91
829.9288, 28078.39
830.4109, 28100.57
830.8930, 28127.19
831.3751, 28147.47
831.8572, 28158.08
832.3394, 28162.92
832.8215, 28156.67
833.3036, 28148.98
833.7857, 28151.63
834.2678, 28171.56
834.7499, 28180.47
835.2321, 28174.03
835.7142, 28162.31
836.1963, 28143.49
836.6784, 28128.23
837.1605, 28171.27
837.6426, 28300.10
838.1248, 28407.59
838.6069, 28384.53
839.0890, 28306.86
839.5711, 28258.94
840.0532, 28279.32
840.5353, 28290.62
841.0175, 28280.83
841.4996, 28267.52
841.9817, 28269.92
842.4638, 28288.75
842.9459, 28303.74
843.4280, 28311.97
843.9102, 28321.44
844.3923, 28349.46
844.8744, 28381.86
845.3565, 28392.68
845.8386, 28370.49
846.3207, 28350.93
846.8029, 28351.93
847.2850, 28359.63
847.7671, 28361.09
848.2492, 28350.55
848.7313, 28349.95
849.2134, 28362.12
849.6956, 28377.06
850.1777, 28378.43
850.6598, 28373.88
851.1419, 28394.36
851.6240, 28445.90
852.1061, 28499.26
852.5883, 28528.46
853.0704, 28551.86
853.5525, 28591.68
854.0346, 28666.94
854.5167, 28705.34
854.9988, 28691.17
855.4810, 28656.09
855.9631, 28614.64
856.4452, 28566.30
856.9273, 28544.24
857.4094, 28550.04
857.8915, 28571.20
858.3737, 28615.21
858.8558, 28658.68
859.3379, 28667.86
859.8200, 28636.85
860.3021, 28601.20
860.7842, 28560.91
861.2664, 28532.28
861.7485, 28522.50
862.2306, 28531.25
862.7127, 28565.86
863.1948, 28631.34
863.6769, 28701.81
864.1591, 28776.18
864.6412, 28838.27
865.1233, 28839.05
865.6054, 28781.87
866.0875, 28728.10
866.5696, 28704.37
867.0518, 28703.76
867.5339, 28729.46
868.0160, 28783.28
868.4981, 28823.68
868.9802, 28848.39
869.4623, 28864.00
869.9445, 28867.21
870.4266, 28864.01
870.9087, 28892.03
871.3908, 28947.32
871.8729, 28984.98
872.3550, 28962.39
872.8372, 28923.55
873.3193, 28906.55
873.8014, 28907.59
874.2835, 28900.03
874.7656, 28859.82
875.2477, 28831.74
875.7299, 28825.50
876.2120, 28840.25
876.6941, 28884.27
877.1762, 28957.31
877.6583, 29006.18
878.1404, 28995.90
878.6226, 28960.91
879.1047, 28945.23
879.5869, 28941.73
880.0690, 28931.67
880.5511, 28877.04
881.0332, 28851.18
881.5153, 28895.82
881.9974, 28976.32
882.4796, 29023.01
882.9617, 29029.63
883.4438, 29038.50
883.9259, 29061.21
884.4080, 29087.02
884.8901, 29094.06
885.3723, 29091.06
885.8544, 29099.70
886.3365, 29139.54
886.8186, 29172.35
887.3007, 29181.75
887.7828, 29173.40
888.2650, 29150.95
888.7471, 29092.81
889.2292, 29088.13
889.7113, 29163.29
890.1934, 29250.40
890.6755, 29247.16
891.1577, 29183.05
891.6398, 29155.85
892.1219, 29191.71
892.6040, 29225.06
893.0861, 29182.99
893.5682, 29132.77
894.0504, 29143.88
894.5325, 29265.56
895.0146, 29347.84
895.4967, 29387.07
895.9788, 29393.62
896.4609, 29367.22
896.9431, 29312.83
897.4252, 29254.85
897.9073, 29194.36
898.3894, 29152.35
898.8715, 29141.57
899.3536, 29157.18
899.8358, 29203.72
900.3179, 29284.33
900.8000, 29349.79
901.2821, 29393.38
901.7642, 29424.06
902.2463, 29448.57
902.7285, 29464.33
903.2106, 29441.79
903.6927, 29383.13
904.1748, 29342.40
904.6569, 29374.38
905.1390, 29423.88
905.6212, 29437.77
906.1033, 29420.09
906.5854, 29394.36
907.0675, 29334.49
907.5496, 29308.87
908.0317, 29346.10
908.5139, 29423.17
908.9960, 29467.50
909.4781, 29478.71
909.9602, 29500.89
910.4423, 29560.93
910.9244, 29620.17
911.4066, 29618.07
911.8887, 29583.61
912.3708, 29570.09
912.8529, 29621.23
913.3350, 29661.99
913.8171, 29673.10
914.2993, 29671.62
914.7814, 29681.51
915.2635, 29704.37
915.7456, 29715.94
916.2277, 29711.10
916.7098, 29701.73
917.1920, 29699.92
917.6741, 29703.17
918.1562, 29706.64
918.6383, 29706.75
919.1204, 29716.60
919.6025, 29759.28
920.0847, 29797.27
920.5668, 29804.34
921.0489, 29776.36
921.5310, 29739.66
922.0131, 29691.25
922.4952, 29659.40
922.9774, 29687.88
923.4595, 29737.45
923.9416, 29735.94
924.4237, 29684.77
924.9058, 29666.18
925.3879, 29751.44
925.8701, 29837.42
926.3522, 29885.48
926.8343, 29897.43
927.3164, 29879.55
927.7985, 29827.18
928.2806, 29787.14
928.7628, 29784.65
929.2449, 29803.76
929.7270, 29825.15
930.2091, 29847.59
930.6912, 29868.31
931.1733, 29893.87
931.6555, 29908.04
932.1376, 29897.98
932.6197, 29876.83
933.1018, 29863.06
933.5839, 29855.26
934.0660, 29867.71
934.5482, 29907.72
935.0303, 29954.21
935.5124, 29983.52
935.9945, 29999.67
936.4766, 30010.88
936.9587, 30023.36
937.4409, 30019.79
937.9230, 29970.84
938.4051, 29921.79
938.8872, 29910.19
939.3693, 29944.59
939.8514, 29962.86
940.3336, 29961.98
940.8157, 29965.26
941.2978, 30010.10
941.7799, 30062.41
942.2620, 30064.26
942.7441, 30015.51
943.2263, 29974.69
943.7084, 29952.29
944.1905, 29958.59
944.6726, 30012.31
945.1547, 30099.64
945.6368, 30123.25
946.1190, 30078.86
946.6011, 30047.20
947.0832, 30072.82
947.5653, 30121.25
948.0474, 30147.89
948.5295, 30161.01
949.0117, 30179.81
949.4938, 30226.54
949.9759, 30258.80
950.4580, 30260.56
950.9401, 30250.66
951.4222, 30262.32
951.9044, 30296.29
952.3865, 30310.05
952.8686, 30296.69
953.3507, 30262.56
953.8328, 30168.48
954.3149, 30079.48
954.7971, 30095.50
955.2792, 30277.87
955.7613, 30400.08
956.2434, 30415.73
956.7255, 30377.87
957.2076, 30297.71
957.6898, 30177.77
958.1719, 30115.42
958.6540, 30109.99
959.1361, 30148.01
959.6182, 30266.07
960.1003, 30387.36
960.5825, 30436.48
961.0646, 30421.87
961.5467, 30407.27
962.0288, 30402.34
962.5109, 30400.59
962.9930, 30396.77
963.4752, 30398.42
963.9573, 30439.72
964.4394, 30510.19
964.9215, 30541.65
965.4036, 30487.36
965.8857, 30436.45
966.3679, 30482.70
966.8500, 30566.13
967.3321, 30607.24
967.8142, 30560.64
968.2963, 30532.43
968.7784, 30523.79
969.2606, 30532.45
969.7427, 30570.44
970.2248, 30624.35
970.7069, 30640.00
971.1890, 30613.70
971.6711, 30584.82
972.1533, 30572.09
972.6354, 30571.54
973.1175, 30580.56
973.5996, 30599.16
974.0817, 30639.14
974.5638, 30715.40
975.0460, 30757.90
975.5281, 30722.40
976.0102, 30649.13
976.4923, 30612.41
976.9744, 30609.79
977.4565, 30634.04
977.9387, 30723.96
978.4208, 30791.15
978.9029, 30783.29
979.3850, 30744.93
979.8671, 30735.77
980.3492, 30760.65
980.8314, 30787.56
981.3135, 30813.39
981.7956, 30839.70
982.2777, 30878.58
982.7598, 30914.77
983.2419, 30922.14
983.7241, 30893.24
984.2062, 30866.86
984.6883, 30844.34
985.1704, 30838.63
985.6525, 30863.20
986.1346, 30913.26
986.6168, 30934.74
987.0989, 30928.45
987.5810, 30919.69
988.0631, 30920.21
988.5452, 30927.27
989.0273, 30945.04
989.5095, 30967.09
989.9916, 30976.24
990.4737, 30950.78
990.9558, 30942.74
991.4379, 30964.66
991.9200, 30997.20
992.4022, 31007.72
992.8843, 31001.89
993.3664, 31003.91
993.8485, 31018.06
994.3306, 31041.22
994.8127, 31073.91
995.2949, 31113.02
995.7770, 31160.77
996.2591, 31221.73
996.7412, 31254.95
997.2233, 31257.80
997.7054, 31241.37
998.1876, 31193.20
998.6697, 31138.14
999.1518, 31142.75
999.6339, 31192.37
1000.116, 31228.20
1000.598, 31203.39
1001.080, 31184.67
1001.562, 31212.67
1002.044, 31253.19
1002.527, 31230.56
1003.009, 31137.24
1003.491, 31100.02
1003.973, 31152.70
1004.455, 31222.61
1004.937, 31222.35
1005.419, 31194.73
1005.901, 31193.85
1006.384, 31234.47
1006.866, 31281.08
1007.348, 31341.59
1007.830, 31387.77
1008.312, 31399.62
1008.794, 31382.87
1009.276, 31367.58
1009.758, 31354.41
1010.240, 31347.91
1010.723, 31358.63
1011.205, 31369.13
1011.687, 31366.49
1012.169, 31355.23
1012.651, 31347.20
1013.133, 31339.85
1013.615, 31343.71
1014.097, 31360.46
1014.580, 31388.62
1015.062, 31439.31
1015.544, 31495.88
1016.026, 31522.00
1016.508, 31505.11
1016.990, 31491.94
1017.472, 31492.02
1017.954, 31511.64
1018.436, 31565.88
1018.919, 31650.60
1019.401, 31671.70
1019.883, 31628.97
1020.365, 31591.46
1020.847, 31607.15
1021.329, 31640.21
1021.811, 31658.63
1022.293, 31666.09
1022.776, 31672.00
1023.258, 31677.30
1023.740, 31682.86
1024.222, 31689.71
1024.704, 31695.24
1025.186, 31694.65
1025.668, 31689.65
1026.150, 31685.71
1026.632, 31683.47
1027.115, 31683.60
1027.597, 31680.53
1028.079, 31685.26
1028.561, 31708.40
1029.043, 31748.69
1029.525, 31784.81
1030.007, 31816.27
1030.489, 31842.72
1030.972, 31863.17
1031.454, 31879.27
1031.936, 31904.78
1032.418, 31926.58
1032.900, 31916.52
1033.382, 31808.29
1033.864, 31750.93
1034.346, 31772.35
1034.828, 31829.28
1035.311, 31887.68
1035.793, 31942.53
1036.275, 31939.70
1036.757, 31874.46
1037.239, 31836.74
1037.721, 31933.34
1038.203, 32043.12
1038.685, 32077.47
1039.167, 32039.94
1039.650, 31996.67
1040.132, 31936.16
1040.614, 31928.92
1041.096, 32024.23
1041.578, 32141.40
1042.060, 32133.40
1042.542, 32055.52
1043.024, 32013.23
1043.507, 32064.64
1043.989, 32099.53
1044.471, 32086.22
1044.953, 32064.27
1045.435, 32066.74
1045.917, 32091.02
1046.399, 32103.26
1046.881, 32102.88
1047.364, 32092.96
1047.846, 32059.51
1048.328, 32032.05
1048.810, 32026.30
1049.292, 32044.83
1049.774, 32094.51
1050.256, 32195.05
1050.738, 32252.09
1051.220, 32237.28
1051.703, 32197.73
1052.185, 32202.40
1052.667, 32229.18
1053.149, 32240.68
1053.631, 32227.18
1054.113, 32209.15
1054.595, 32171.48
1055.077, 32155.24
1055.559, 32193.29
1056.042, 32273.38
1056.524, 32309.00
1057.006, 32304.70
1057.488, 32297.82
1057.970, 32298.84
1058.452, 32313.85
1058.934, 32353.18
1059.416, 32407.77
1059.899, 32463.57
1060.381, 32532.25
1060.863, 32553.10
1061.345, 32511.60
1061.827, 32462.91
1062.309, 32463.28
1062.791, 32493.18
1063.273, 32535.68
1063.755, 32587.83
1064.238, 32605.38
1064.720, 32532.05
1065.202, 32481.09
1065.684, 32493.83
1066.166, 32545.57
1066.648, 32561.12
1067.130, 32551.00
1067.612, 32568.46
1068.094, 32644.02
1068.577, 32718.25
1069.059, 32770.68
1069.541, 32793.57
1070.023, 32772.79
1070.505, 32692.49
1070.987, 32673.44
1071.469, 32721.96
1071.951, 32767.29
1072.434, 32741.56
1072.916, 32699.74
1073.398, 32717.37
1073.880, 32776.32
1074.362, 32809.32
1074.844, 32773.21
1075.326, 32760.54
1075.808, 32787.36
1076.291, 32833.06
1076.773, 32879.05
1077.255, 32919.53
1077.737, 32931.03
1078.219, 32908.59
1078.701, 32890.16
1079.183, 32897.63
1079.665, 32911.94
1080.147, 32924.99
1080.630, 32936.24
1081.112, 32938.21
1081.594, 32931.63
1082.076, 32941.45
1082.558, 32988.01
1083.040, 33033.39
1083.522, 33035.32
1084.004, 33019.18
1084.486, 33020.75
1084.969, 33056.62
1085.451, 33070.39
1085.933, 33055.52
1086.415, 33042.84
1086.897, 33056.59
1087.379, 33087.91
1087.861, 33134.22
1088.343, 33186.94
1088.826, 33212.22
1089.308, 33176.36
1089.790, 33136.68
1090.272, 33091.63
1090.754, 33062.24
1091.236, 33097.44
1091.718, 33180.40
1092.200, 33227.64
1092.682, 33223.59
1093.165, 33226.31
1093.647, 33303.11
1094.129, 33368.94
1094.611, 33353.54
1095.093, 33274.38
1095.575, 33265.99
1096.057, 33331.82
1096.539, 33380.77
1097.022, 33369.39
1097.504, 33345.44
1097.986, 33373.37
1098.468, 33412.58
1098.950, 33397.36
1099.432, 33258.55
1099.914, 33243.14
1100.396, 33388.66
1100.879, 33536.32
1101.361, 33553.56
1101.843, 33502.07
1102.325, 33508.80
1102.807, 33556.29
1103.289, 33574.96
1103.771, 33474.32
1104.253, 33437.21
1104.735, 33528.53
1105.218, 33649.66
1105.700, 33642.23
1106.182, 33538.79
1106.664, 33503.66
1107.146, 33555.58
1107.628, 33604.75
1108.110, 33580.61
1108.592, 33553.89
1109.074, 33566.92
1109.557, 33610.14
1110.039, 33645.34
1110.521, 33672.71
1111.003, 33700.79
1111.485, 33731.57
1111.967, 33764.46
1112.449, 33811.71
1112.931, 33852.63
1113.414, 33857.89
1113.896, 33812.63
1114.378, 33803.19
1114.860, 33839.40
1115.342, 33868.09
1115.824, 33850.33
1116.306, 33814.50
1116.788, 33801.54
1117.271, 33806.53
1117.753, 33818.42
1118.235, 33831.80
1118.717, 33858.06
1119.199, 33905.50
1119.681, 33951.27
1120.163, 33970.36
1120.645, 33969.93
1121.127, 33963.07
1121.609, 33953.39
1122.092, 33964.29
1122.574, 34039.22
1123.056, 34096.46
1123.538, 34095.30
1124.020, 34072.13
1124.502, 34118.91
1124.984, 34221.32
1125.466, 34241.39
1125.949, 34143.01
1126.431, 34059.18
1126.913, 34106.13
1127.395, 34182.57
1127.877, 34215.22
1128.359, 34208.56
1128.841, 34208.37
1129.323, 34215.11
1129.806, 34218.70
1130.288, 34211.25
1130.770, 34208.14
1131.252, 34233.40
1131.734, 34268.48
1132.216, 34287.55
1132.698, 34281.83
1133.180, 34281.30
1133.662, 34285.00
1134.145, 34298.32
1134.627, 34331.62
1135.109, 34372.29
1135.591, 34408.37
1136.073, 34435.05
1136.555, 34439.27
1137.037, 34397.63
1137.519, 34358.48
1138.001, 34316.00
1138.484, 34295.00
1138.966, 34335.28
1139.448, 34413.73
1139.930, 34477.84
1140.412, 34525.15
1140.894, 34558.48
1141.376, 34574.86
1141.858, 34582.77
1142.341, 34583.04
1142.823, 34578.54
1143.305, 34562.49
1143.787, 34544.41
1144.269, 34582.03
1144.751, 34692.75
1145.233, 34770.25
1145.715, 34717.38
1146.198, 34651.14
1146.680, 34639.65
1147.162, 34668.86
1147.644, 34661.76
1148.126, 34623.56
1148.608, 34628.63
1149.090, 34717.54
1149.572, 34810.43
1150.054, 34846.62
1150.536, 34858.18
1151.019, 34879.32
1151.501, 34913.92
1151.983, 34911.23
1152.465, 34869.38
1152.947, 34836.82
1153.429, 34850.29
1153.911, 34872.81
1154.393, 34860.89
1154.876, 34836.16
1155.358, 34838.94
1155.840, 34882.46
1156.322, 34920.09
1156.804, 34952.09
1157.286, 34972.26
1157.768, 34969.22
1158.250, 34955.93
1158.733, 34936.57
1159.215, 34919.92
1159.697, 34938.65
1160.179, 35016.78
1160.661, 35087.18
1161.143, 35143.51
1161.625, 35186.95
1162.107, 35218.97
1162.589, 35239.94
1163.072, 35250.40
1163.554, 35250.43
1164.036, 35237.74
1164.518, 35194.64
1165.000, 35167.55
1165.482, 35167.77
1165.964, 35189.13
1166.446, 35229.48
1166.928, 35280.02
1167.411, 35324.40
1167.893, 35361.39
1168.375, 35378.17
1168.857, 35330.07
1169.339, 35318.03
1169.821, 35412.45
1170.303, 35546.85
1170.785, 35499.39
1171.268, 35323.11
1171.750, 35186.22
1172.232, 35134.61
1172.714, 35149.68
1173.196, 35298.49
1173.678, 35441.43
1174.160, 35483.11
1174.642, 35442.89
1175.125, 35438.10
1175.607, 35465.91
1176.089, 35511.65
1176.571, 35599.05
1177.053, 35662.62
1177.535, 35651.21
1178.017, 35618.81
1178.499, 35617.80
1178.981, 35647.60
1179.464, 35647.68
1179.946, 35619.94
1180.428, 35604.98
1180.910, 35629.20
1181.392, 35671.99
1181.874, 35742.63
1182.356, 35815.32
1182.838, 35851.36
1183.320, 35850.22
1183.803, 35831.12
1184.285, 35795.07
1184.767, 35755.41
1185.249, 35695.87
1185.731, 35660.68
1186.213, 35705.81
1186.695, 35796.95
1187.177, 35831.78
1187.660, 35804.92
1188.142, 35809.40
1188.624, 35864.01
1189.106, 35920.54
1189.588, 35943.41
1190.070, 35944.77
1190.552, 35915.90
1191.034, 35868.90
1191.516, 35893.08
1191.999, 36001.05
1192.481, 36052.26
1192.963, 35998.21
1193.445, 35928.87
1193.927, 35949.48
1194.409, 35989.86
1194.891, 35959.98
1195.373, 35852.35
1195.855, 35846.53
1196.338, 35955.30
1196.820, 36055.30
1197.302, 36098.49
1197.784, 36111.89
1198.266, 36103.17
1198.748, 36093.37
1199.230, 36115.15
1199.712, 36179.68
1200.195, 36215.41
1200.677, 36218.21
1201.159, 36222.06
1201.641, 36255.10
1202.123, 36285.55
1202.605, 36247.65
1203.087, 36192.55
1203.569, 36212.78
1204.052, 36363.67
1204.534, 36439.77
1205.016, 36430.95
1205.498, 36411.51
1205.980, 36444.95
1206.462, 36485.89
1206.944, 36468.51
1207.426, 36420.20
1207.908, 36407.57
1208.391, 36453.09
1208.873, 36484.48
1209.355, 36498.14
1209.837, 36502.28
1210.319, 36492.98
1210.801, 36486.31
1211.283, 36495.25
1211.765, 36522.76
1212.247, 36585.63
1212.730, 36719.46
1213.212, 36765.65
1213.694, 36693.59
1214.176, 36599.88
1214.658, 36563.88
1215.140, 36567.02
1215.622, 36606.58
1216.104, 36670.53
1216.587, 36691.29
1217.069, 36643.03
1217.551, 36633.12
1218.033, 36684.29
1218.515, 36754.41
1218.997, 36803.47
1219.479, 36840.92
1219.961, 36883.31
1220.443, 36928.23
1220.926, 36936.73
1221.408, 36897.14
1221.890, 36862.13
1222.372, 36841.19
1222.854, 36838.37
1223.336, 36878.84
1223.818, 36927.25
1224.300, 36932.84
1224.782, 36888.54
1225.265, 36891.60
1225.747, 36952.63
1226.229, 37012.63
1226.711, 37055.32
1227.193, 37084.73
1227.675, 37093.69
1228.157, 37099.34
1228.639, 37126.26
1229.122, 37180.25
1229.604, 37216.53
1230.086, 37235.76
1230.568, 37229.05
1231.050, 37173.68
1231.532, 37131.72
1232.014, 37217.59
1232.496, 37334.66
1232.979, 37345.13
1233.461, 37220.41
1233.943, 37194.85
1234.425, 37280.46
1234.907, 37344.25
1235.389, 37302.41
1235.871, 37246.48
1236.353, 37254.52
1236.835, 37310.27
1237.318, 37412.69
1237.800, 37581.33
1238.282, 37607.66
1238.764, 37484.32
1239.246, 37365.29
1239.728, 37327.68
1240.210, 37341.41
1240.692, 37411.17
1241.175, 37503.14
1241.657, 37574.45
1242.139, 37627.84
1242.621, 37626.11
1243.103, 37568.60
1243.585, 37531.93
1244.067, 37576.97
1244.549, 37643.29
1245.031, 37707.96
1245.514, 37758.70
1245.996, 37779.73
1246.478, 37768.88
1246.960, 37749.63
1247.442, 37723.63
1247.924, 37716.87
1248.406, 37778.06
1248.888, 37827.94
1249.370, 37795.45
1249.853, 37742.05
1250.335, 37755.14
1250.817, 37831.63
1251.299, 37877.85
1251.781, 37891.75
1252.263, 37907.58
1252.745, 37965.66
1253.227, 38007.20
1253.710, 37994.63
1254.192, 37960.66
1254.674, 37932.75
1255.156, 37916.07
1255.638, 37971.72
1256.120, 38093.62
1256.602, 38172.21
1257.084, 38099.29
1257.567, 38033.06
1258.049, 38025.56
1258.531, 38047.90
1259.013, 38064.61
1259.495, 38077.17
1259.977, 38091.80
1260.459, 38108.54
1260.941, 38122.15
1261.423, 38115.96
1261.906, 38127.14
1262.388, 38166.93
1262.870, 38221.57
1263.352, 38284.16
1263.834, 38341.94
1264.316, 38353.88
1264.798, 38321.14
1265.280, 38305.57
1265.762, 38341.23
1266.245, 38370.83
1266.727, 38384.37
1267.209, 38388.37
1267.691, 38389.48
1268.173, 38388.24
1268.655, 38380.52
1269.137, 38367.52
1269.619, 38371.14
1270.102, 38375.30
1270.584, 38456.39
1271.066, 38658.11
1271.548, 38844.94
1272.030, 38808.81
1272.512, 38681.69
1272.994, 38598.21
1273.476, 38576.60
1273.958, 38630.66
1274.441, 38789.67
1274.923, 38859.73
1275.405, 38777.64
1275.887, 38689.45
1276.369, 38786.45
1276.851, 38920.31
1277.333, 38939.70
1277.815, 38857.82
1278.297, 38798.41
1278.780, 38761.63
1279.262, 38760.61
1279.744, 38805.23
1280.226, 38845.01
1280.708, 38823.99
1281.190, 38796.66
1281.672, 38797.14
1282.154, 38824.70
1282.637, 38891.55
1283.119, 38991.13
1283.601, 39055.67
1284.083, 39068.20
1284.565, 39071.07
1285.047, 39102.59
1285.529, 39113.30
1286.011, 39065.50
1286.494, 38992.34
1286.976, 38996.93
1287.458, 39057.67
1287.940, 39102.25
1288.422, 39114.18
1288.904, 39124.48
1289.386, 39147.83
1289.868, 39166.13
1290.350, 39169.78
1290.833, 39170.14
1291.315, 39193.77
1291.797, 39229.87
1292.279, 39258.11
1292.761, 39274.74
1293.243, 39282.50
1293.725, 39276.66
1294.207, 39278.64
1294.689, 39298.77
1295.172, 39322.02
1295.654, 39321.88
1296.136, 39313.89
1296.618, 39319.55
1297.100, 39343.46
1297.582, 39365.99
1298.064, 39388.65
1298.546, 39399.16
1299.029, 39389.70
1299.511, 39379.61
1299.993, 39385.63
1300.475, 39403.52
1300.957, 39434.75
1301.439, 39475.32
1301.921, 39507.05
1302.403, 39529.96
##END=



