##NAMES=Magnetite
##RRUFFID=R140861
##IDEAL CHEMISTRY=Fe^2+^Fe^3+^_2_O_4_
##LOCALITY=Bon Accord, Barberton District, Mpumalanga Province, South Africa
##OWNER=RRUFF
##SOURCE=Rock Currier
##DESCRIPTION=Dark green isolated granular or octahedral crystals, associated with yellowish-green irregular veins of nimite, minute light-green opaque grains of willemseite, reevesite as yellowish-green massive earthy vug material and limonite.
##STATUS=The identification of this mineral is confirmed by single-crystal X-ray diffraction and chemical analysis.
##URL=rruff.info/R140861
##MEASURED CHEMISTRY=(Fe^2+^_0.82_Ni_0.18_)_Î£=1.00_Fe^3+^_2.00_O_4_
150.3781, 361.8963
150.8602, 359.9997
151.3424, 359.0319
151.8245, 357.5572
152.3066, 354.9762
152.7887, 352.1928
153.2708, 349.8907
153.7529, 348.3392
154.2351, 347.3231
154.7172, 346.3246
155.1993, 345.5374
155.6814, 344.5204
156.1635, 343.1770
156.6456, 341.6189
157.1278, 340.0487
157.6099, 338.5845
158.0920, 337.0890
158.5741, 334.9272
159.0562, 330.8829
159.5383, 327.6075
160.0205, 326.2778
160.5026, 326.2520
160.9847, 326.0132
161.4668, 324.6303
161.9489, 322.4036
162.4310, 320.7929
162.9131, 320.3705
163.3953, 319.9706
163.8774, 318.9076
164.3595, 317.2286
164.8416, 315.3980
165.3237, 313.6191
165.8058, 311.9044
166.2880, 310.2479
166.7701, 308.4602
167.2522, 306.8717
167.7343, 306.0508
168.2164, 306.1964
168.6985, 306.1696
169.1807, 305.0645
169.6628, 303.4478
170.1449, 301.9795
170.6270, 300.9910
171.1091, 300.2570
171.5912, 299.2316
172.0734, 297.7295
172.5555, 296.2700
173.0376, 295.1898
173.5197, 294.2447
174.0018, 293.0561
174.4839, 291.3463
174.9661, 289.2240
175.4482, 287.3545
175.9303, 285.6712
176.4124, 284.3811
176.8945, 283.7578
177.3766, 283.5441
177.8588, 283.2881
178.3409, 282.6129
178.8230, 281.5106
179.3051, 280.9147
179.7872, 281.4992
180.2693, 281.9241
180.7515, 281.8239
181.2336, 281.2223
181.7157, 280.2574
182.1978, 278.9859
182.6799, 277.3312
183.1620, 276.1725
183.6441, 275.9040
184.1263, 275.6609
184.6084, 274.9510
185.0905, 273.8153
185.5726, 272.6534
186.0547, 271.8181
186.5368, 271.3579
187.0190, 271.0825
187.5011, 271.1989
187.9832, 271.3498
188.4653, 271.4028
188.9474, 271.3226
189.4296, 270.8455
189.9117, 269.4837
190.3938, 267.2785
190.8759, 265.5621
191.3580, 264.9826
191.8401, 264.7365
192.3223, 263.8484
192.8044, 262.1222
193.2865, 260.1976
193.7686, 258.6176
194.2507, 257.3116
194.7328, 256.1779
195.2150, 255.3428
195.6971, 254.6302
196.1792, 253.6613
196.6613, 252.3198
197.1434, 250.9036
197.6255, 249.6211
198.1077, 248.4329
198.5898, 247.2753
199.0719, 246.0818
199.5540, 244.8767
200.0361, 243.8059
200.5182, 243.0268
201.0004, 242.1539
201.4825, 240.8069
201.9646, 239.1955
202.4467, 237.8573
202.9288, 237.3111
203.4109, 237.4945
203.8930, 237.3547
204.3752, 236.7709
204.8573, 235.9436
205.3394, 234.8617
205.8215, 233.6018
206.3036, 232.2985
206.7857, 231.0396
207.2679, 229.8193
207.7500, 228.7603
208.2321, 227.8291
208.7142, 227.1031
209.1963, 226.7851
209.6784, 226.7331
210.1606, 226.5901
210.6427, 225.9905
211.1248, 224.8446
211.6069, 224.0788
212.0890, 224.1124
212.5711, 224.0995
213.0533, 223.6284
213.5354, 222.7794
214.0175, 221.9095
214.4996, 221.3540
214.9817, 221.1709
215.4638, 220.9031
215.9460, 220.6154
216.4281, 220.2109
216.9102, 219.5054
217.3923, 218.5840
217.8744, 217.7935
218.3565, 217.5065
218.8387, 217.8172
219.3208, 217.7114
219.8029, 216.8949
220.2850, 215.9549
220.7671, 215.2393
221.2492, 214.7581
221.7314, 214.3088
222.2135, 213.6672
222.6956, 212.8321
223.1777, 212.3916
223.6598, 212.8083
224.1419, 213.2770
224.6240, 213.0820
225.1062, 212.2166
225.5883, 211.3665
226.0704, 211.1702
226.5525, 211.5313
227.0346, 211.5745
227.5167, 210.8914
227.9989, 210.0915
228.4810, 209.7366
228.9631, 209.8595
229.4452, 210.2033
229.9273, 210.8156
230.4094, 211.5024
230.8916, 211.7245
231.3737, 211.0312
231.8558, 210.0310
232.3379, 209.4519
232.8200, 209.3571
233.3021, 209.2389
233.7843, 208.6524
234.2664, 207.8521
234.7485, 207.2304
235.2306, 206.9597
235.7127, 206.8465
236.1948, 206.6047
236.6770, 206.1857
237.1591, 205.8359
237.6412, 205.6550
238.1233, 205.6223
238.6054, 205.7750
239.0875, 206.2142
239.5697, 206.7138
240.0518, 206.9316
240.5339, 206.8547
241.0160, 206.5255
241.4981, 205.5953
241.9802, 204.5835
242.4624, 204.0503
242.9445, 204.2556
243.4266, 204.7997
243.9087, 205.0283
244.3908, 204.9027
244.8729, 204.5445
245.3550, 203.7480
245.8372, 202.8753
246.3193, 202.2725
246.8014, 202.0665
247.2835, 202.0289
247.7656, 201.7284
248.2477, 200.9874
248.7299, 200.4136
249.2120, 200.2803
249.6941, 200.2373
250.1762, 199.9956
250.6583, 199.4705
251.1404, 198.8296
251.6226, 198.3844
252.1047, 198.3385
252.5868, 198.0196
253.0689, 197.2105
253.5510, 196.2600
254.0331, 195.3248
254.5153, 194.4782
254.9974, 193.8132
255.4795, 193.5297
255.9616, 193.9522
256.4437, 194.0510
256.9258, 193.6279
257.4080, 193.0714
257.8901, 192.6601
258.3722, 192.4307
258.8543, 192.1926
259.3364, 191.6332
259.8185, 190.4194
260.3007, 189.7593
260.7828, 189.9760
261.2649, 190.3669
261.7470, 190.5415
262.2291, 190.4393
262.7112, 190.2058
263.1934, 190.0219
263.6755, 189.9715
264.1576, 189.6338
264.6397, 188.8476
265.1218, 187.9707
265.6039, 187.1379
266.0861, 186.3923
266.5682, 185.7634
267.0503, 185.2910
267.5324, 185.0011
268.0145, 184.7234
268.4966, 184.6475
268.9788, 184.4153
269.4609, 183.7148
269.9430, 182.6567
270.4251, 181.6527
270.9072, 181.0520
271.3893, 180.8760
271.8715, 180.5983
272.3536, 180.0946
272.8357, 179.6336
273.3178, 179.3909
273.7999, 179.2958
274.2820, 179.1418
274.7642, 178.7797
275.2463, 178.2301
275.7284, 177.7535
276.2105, 177.3119
276.6926, 176.9591
277.1747, 176.7310
277.6568, 176.6038
278.1389, 176.5562
278.6211, 176.6019
279.1032, 176.6818
279.5853, 176.5200
280.0674, 175.8667
280.5495, 175.3155
281.0316, 175.0854
281.5138, 175.0489
281.9959, 174.9800
282.4780, 174.7808
282.9601, 174.5024
283.4422, 174.2907
283.9243, 174.2638
284.4065, 174.0805
284.8886, 173.4969
285.3707, 172.7607
285.8528, 172.2346
286.3349, 172.0407
286.8170, 172.0677
287.2992, 172.1640
287.7813, 172.3672
288.2634, 172.5055
288.7455, 172.6066
289.2276, 172.6055
289.7097, 172.3880
290.1919, 171.9228
290.6740, 171.3517
291.1561, 170.7983
291.6382, 170.2468
292.1203, 169.8866
292.6024, 169.9501
293.0846, 170.0933
293.5667, 169.9267
294.0488, 169.4050
294.5309, 168.8639
295.0130, 168.6295
295.4951, 168.7106
295.9773, 168.7070
296.4594, 168.5348
296.9415, 168.3232
297.4236, 168.1753
297.9057, 168.0910
298.3878, 167.9942
298.8700, 167.7904
299.3521, 167.5310
299.8342, 167.4846
300.3163, 167.8863
300.7984, 168.2818
301.2805, 168.4319
301.7627, 168.3534
302.2448, 168.1253
302.7269, 167.7438
303.2090, 167.2684
303.6911, 166.8928
304.1732, 166.7418
304.6554, 166.4831
305.1375, 165.7431
305.6196, 164.7669
306.1017, 164.2778
306.5838, 164.6863
307.0659, 165.4525
307.5481, 165.4651
308.0302, 164.5787
308.5123, 163.7415
308.9944, 163.2137
309.4765, 162.9416
309.9586, 162.9047
310.4408, 163.1402
310.9229, 163.4263
311.4050, 163.4666
311.8871, 163.2673
312.3692, 162.9746
312.8513, 162.2200
313.3335, 161.5682
313.8156, 161.9176
314.2977, 163.4346
314.7798, 165.0111
315.2619, 165.6802
315.7440, 165.4429
316.2262, 164.8513
316.7083, 163.6524
317.1904, 162.3213
317.6725, 161.0737
318.1546, 159.9563
318.6367, 159.3784
319.1188, 159.8365
319.6010, 161.0577
320.0831, 161.6524
320.5652, 161.3209
321.0473, 160.6909
321.5294, 159.9153
322.0115, 159.0806
322.4937, 158.5050
322.9758, 158.3889
323.4579, 158.5702
323.9400, 158.6388
324.4221, 158.5672
324.9042, 158.4713
325.3864, 158.4631
325.8685, 158.4496
326.3506, 158.2127
326.8327, 157.6485
327.3148, 156.9722
327.7969, 156.5093
328.2791, 156.2642
328.7612, 156.1256
329.2433, 156.2226
329.7254, 156.3487
330.2075, 156.2195
330.6896, 155.7858
331.1718, 155.3046
331.6539, 155.0621
332.1360, 155.0813
332.6181, 154.9019
333.1002, 154.3074
333.5823, 153.6647
334.0645, 153.2211
334.5466, 152.9848
335.0287, 152.8782
335.5108, 152.9058
335.9929, 153.0155
336.4750, 152.8640
336.9572, 152.1369
337.4393, 151.5055
337.9214, 151.3367
338.4035, 151.4807
338.8856, 151.5907
339.3677, 151.5134
339.8499, 151.2880
340.3320, 151.0055
340.8141, 150.6499
341.2962, 150.2777
341.7783, 149.7424
342.2604, 149.2514
342.7426, 149.1817
343.2247, 149.6422
343.7068, 150.2130
344.1889, 150.3046
344.6710, 149.7162
345.1531, 149.1613
345.6353, 148.5125
346.1174, 147.9936
346.5995, 147.8874
347.0816, 148.1573
347.5637, 148.4185
348.0458, 148.3060
348.5280, 147.7927
349.0101, 147.4743
349.4922, 147.4907
349.9743, 147.5259
350.4564, 147.4861
350.9385, 147.3612
351.4207, 147.1130
351.9028, 146.6942
352.3849, 146.1930
352.8670, 145.9952
353.3491, 146.4540
353.8312, 146.7775
354.3134, 146.8218
354.7955, 146.7016
355.2776, 146.5241
355.7597, 146.3308
356.2418, 146.1540
356.7239, 146.0553
357.2061, 146.1317
357.6882, 146.0810
358.1703, 145.7536
358.6524, 145.4217
359.1345, 145.3643
359.6166, 145.5421
360.0987, 145.6094
360.5808, 145.1685
361.0630, 144.1146
361.5451, 143.5788
362.0272, 143.9091
362.5093, 144.3571
362.9914, 144.8642
363.4735, 145.2930
363.9557, 145.4126
364.4378, 145.0661
364.9199, 144.3608
365.4020, 143.7420
365.8841, 143.0997
366.3662, 142.7270
366.8484, 142.8100
367.3305, 143.0862
367.8126, 143.3241
368.2947, 143.4431
368.7768, 143.4819
369.2589, 143.5097
369.7411, 143.5687
370.2232, 143.4941
370.7053, 143.1228
371.1874, 142.7569
371.6695, 142.6021
372.1516, 142.6243
372.6338, 142.6055
373.1159, 142.3022
373.5980, 141.7298
374.0801, 141.4248
374.5622, 141.6385
375.0443, 141.8207
375.5265, 141.7802
376.0086, 141.5932
376.4907, 141.3925
376.9728, 141.2511
377.4549, 141.1081
377.9370, 140.7937
378.4192, 140.2118
378.9013, 139.7332
379.3834, 139.4988
379.8655, 139.3816
380.3476, 139.3097
380.8297, 139.2676
381.3119, 139.2341
381.7940, 139.2259
382.2761, 139.2404
382.7582, 139.1210
383.2403, 138.8355
383.7224, 138.4101
384.2046, 137.7615
384.6867, 136.9786
385.1688, 136.3598
385.6509, 136.2184
386.1330, 136.3313
386.6151, 136.1228
387.0973, 135.4723
387.5794, 134.9391
388.0615, 135.0714
388.5436, 135.4587
389.0257, 135.5032
389.5078, 134.9993
389.9900, 134.2998
390.4721, 133.6259
390.9542, 132.9905
391.4363, 132.5441
391.9184, 132.4251
392.4005, 132.4077
392.8827, 132.1203
393.3648, 131.5305
393.8469, 131.1035
394.3290, 131.1174
394.8111, 131.3775
395.2932, 131.6911
395.7754, 132.0676
396.2575, 132.1261
396.7396, 131.3756
397.2217, 129.8928
397.7038, 128.7376
398.1859, 128.1547
398.6681, 127.7256
399.1501, 127.2021
399.6323, 126.6011
400.1144, 125.9962
400.5965, 125.4057
401.0786, 124.8644
401.5607, 124.5055
402.0428, 124.4769
402.5250, 124.3403
403.0071, 123.8353
403.4892, 123.2661
403.9713, 123.0764
404.4534, 123.3413
404.9355, 123.6355
405.4177, 123.4244
405.8998, 122.5450
406.3819, 121.9840
406.8640, 121.9122
407.3461, 121.9532
407.8282, 122.0042
408.3104, 122.0166
408.7925, 121.9059
409.2746, 121.6027
409.7567, 121.1726
410.2388, 120.9109
410.7209, 120.8467
411.2031, 120.9384
411.6852, 121.3906
412.1673, 121.8807
412.6494, 122.1277
413.1315, 122.0509
413.6136, 121.7191
414.0958, 121.1590
414.5779, 120.2509
415.0600, 119.5886
415.5421, 119.1593
416.0242, 119.0033
416.5063, 119.3546
416.9885, 120.0083
417.4706, 120.5082
417.9527, 120.5540
418.4348, 120.2466
418.9169, 119.9042
419.3990, 119.4749
419.8812, 119.1338
420.3633, 119.0820
420.8454, 119.0607
421.3275, 118.7609
421.8096, 118.0985
422.2917, 117.4574
422.7739, 117.2555
423.2560, 117.4749
423.7381, 117.7493
424.2202, 118.0957
424.7023, 118.3838
425.1844, 118.4945
425.6666, 118.4656
426.1487, 118.4342
426.6308, 118.5449
427.1129, 118.6462
427.5950, 118.4294
428.0771, 117.8674
428.5593, 117.4269
429.0414, 117.3690
429.5235, 117.6011
430.0056, 117.8999
430.4877, 118.3794
430.9698, 118.6669
431.4520, 118.4692
431.9341, 117.9664
432.4162, 117.4637
432.8983, 117.0191
433.3804, 116.7316
433.8625, 116.7803
434.3447, 117.2290
434.8268, 117.4846
435.3089, 117.3290
435.7910, 117.1436
436.2731, 117.2130
436.7552, 117.4814
437.2374, 117.7177
437.7195, 117.7874
438.2016, 117.7244
438.6837, 117.6557
439.1658, 117.5687
439.6479, 117.4919
440.1301, 117.3637
440.6122, 117.2832
441.0943, 117.4307
441.5764, 117.7972
442.0585, 118.0989
442.5406, 117.9516
443.0227, 117.2365
443.5049, 116.9454
443.9870, 117.5465
444.4691, 118.0931
444.9512, 118.3076
445.4333, 118.2683
445.9154, 118.1071
446.3976, 117.8739
446.8797, 117.6420
447.3618, 117.5988
447.8439, 117.8270
448.3260, 117.9966
448.8081, 118.0402
449.2903, 118.0103
449.7724, 117.8681
450.2545, 117.6444
450.7366, 117.5191
451.2187, 117.7009
451.7008, 118.1090
452.1830, 118.3811
452.6651, 118.4564
453.1472, 118.5276
453.6293, 118.8092
454.1114, 119.1332
454.5935, 119.2296
455.0757, 118.9595
455.5578, 118.6096
456.0399, 118.3436
456.5220, 118.1804
457.0041, 118.2545
457.4862, 118.7035
457.9684, 119.1894
458.4505, 119.1653
458.9326, 118.6320
459.4147, 118.3316
459.8968, 118.5767
460.3789, 118.9793
460.8611, 119.2610
461.3432, 119.3968
461.8253, 119.3815
462.3074, 119.1829
462.7895, 118.8600
463.2716, 118.6532
463.7538, 118.6482
464.2359, 118.6384
464.7180, 118.5152
465.2001, 118.4218
465.6822, 118.5986
466.1643, 119.0443
466.6465, 119.4212
467.1286, 119.3209
467.6107, 118.6662
468.0928, 118.2679
468.5749, 118.3833
469.0570, 118.4828
469.5392, 118.3530
470.0213, 118.1379
470.5034, 118.1093
470.9855, 118.3972
471.4676, 118.7543
471.9497, 118.6796
472.4319, 118.0304
472.9140, 117.5801
473.3961, 117.6172
473.8782, 117.7384
474.3603, 117.6948
474.8424, 117.5218
475.3246, 117.4182
475.8067, 117.5838
476.2888, 117.8700
476.7709, 117.9010
477.2530, 117.6216
477.7351, 117.4448
478.2173, 117.6754
478.6994, 118.0625
479.1815, 118.2023
479.6636, 118.0299
480.1457, 117.7912
480.6278, 117.5483
481.1100, 117.3363
481.5920, 117.2242
482.0742, 117.2250
482.5563, 117.3034
483.0384, 117.4767
483.5205, 117.7315
484.0026, 117.7543
484.4847, 117.3661
484.9669, 116.9552
485.4490, 116.6151
485.9311, 116.3716
486.4132, 116.3075
486.8953, 116.4504
487.3774, 116.6321
487.8596, 116.5576
488.3417, 116.0639
488.8238, 115.7601
489.3059, 115.7782
489.7880, 115.8276
490.2701, 115.7842
490.7523, 115.6575
491.2344, 115.5016
491.7165, 115.3488
492.1986, 115.1898
492.6807, 114.9568
493.1628, 114.5319
493.6450, 114.3618
494.1271, 114.9222
494.6092, 115.4942
495.0913, 115.5598
495.5734, 115.1157
496.0555, 114.5596
496.5377, 114.1029
497.0198, 113.7494
497.5019, 113.5232
497.9840, 113.4354
498.4661, 113.4295
498.9482, 113.5570
499.4304, 113.7148
499.9125, 113.7017
500.3946, 113.4524
500.8767, 113.1687
501.3588, 112.9038
501.8409, 112.6833
502.3231, 112.5651
502.8052, 112.5624
503.2873, 112.6128
503.7694, 112.6996
504.2515, 112.8257
504.7336, 112.6563
505.2158, 111.8605
505.6979, 111.1735
506.1800, 110.9807
506.6621, 111.0268
507.1442, 110.9077
507.6263, 110.4806
508.1085, 109.9126
508.5906, 109.4483
509.0727, 109.0838
509.5548, 108.8345
510.0369, 108.7100
510.5190, 108.6919
511.0012, 108.9005
511.4833, 109.1936
511.9654, 109.3153
512.4475, 109.1298
512.9296, 108.7399
513.4117, 108.2941
513.8939, 107.7756
514.3760, 107.3120
514.8581, 106.8453
515.3402, 106.5402
515.8223, 106.6912
516.3044, 107.1954
516.7866, 107.3819
517.2687, 106.5920
517.7508, 105.5488
518.2329, 105.3219
518.7150, 105.8537
519.1971, 106.1429
519.6793, 105.6079
520.1614, 104.6786
520.6435, 104.4088
521.1256, 105.0814
521.6077, 105.4408
522.0898, 104.9866
522.5720, 104.3376
523.0541, 104.0665
523.5362, 104.1638
524.0183, 104.2494
524.5004, 104.0363
524.9825, 103.6053
525.4647, 103.3795
525.9468, 103.6246
526.4289, 103.6980
526.9110, 103.4094
527.3931, 103.0305
527.8752, 102.7820
528.3574, 102.6869
528.8395, 102.6287
529.3216, 102.4971
529.8037, 102.3124
530.2858, 102.2100
530.7679, 102.2415
531.2501, 102.2366
531.7322, 102.0336
532.2143, 101.7991
532.6964, 101.7397
533.1785, 101.9158
533.6606, 102.0539
534.1428, 101.8966
534.6249, 101.5887
535.1070, 101.4742
535.5891, 101.6108
536.0712, 101.7470
536.5533, 101.6952
537.0355, 101.4775
537.5176, 101.2598
537.9997, 101.0373
538.4818, 100.8200
538.9639, 100.5830
539.4460, 100.3644
539.9282, 100.2471
540.4103, 100.2314
540.8924, 100.1753
541.3745, 99.89126
541.8566, 99.36318
542.3387, 99.17235
542.8209, 99.71477
543.3029, 100.1334
543.7850, 100.2281
544.2672, 100.1251
544.7493, 99.94437
545.2314, 99.72521
545.7135, 99.50185
546.1956, 99.31236
546.6777, 99.15446
547.1599, 98.99633
547.6420, 98.79794
548.1241, 98.68111
548.6062, 98.75214
549.0883, 98.95007
549.5704, 99.21831
550.0526, 99.63878
550.5347, 99.93147
551.0168, 99.86702
551.4989, 99.55843
551.9810, 99.19447
552.4631, 98.81054
552.9453, 98.51919
553.4274, 98.45504
553.9095, 98.61909
554.3916, 98.65212
554.8737, 98.49468
555.3558, 98.29852
555.8380, 97.93650
556.3201, 97.63380
556.8022, 97.82512
557.2843, 98.54606
557.7664, 99.18584
558.2485, 98.95907
558.7307, 97.82642
559.2128, 96.98396
559.6949, 96.46142
560.1770, 96.22459
560.6591, 96.50564
561.1412, 96.91788
561.6234, 96.89465
562.1055, 96.24727
562.5876, 95.68208
563.0697, 96.10007
563.5518, 97.11581
564.0339, 97.30984
564.5161, 96.37502
564.9982, 95.36013
565.4803, 95.02711
565.9624, 95.24021
566.4445, 95.29868
566.9266, 95.04939
567.4088, 94.86411
567.8909, 95.01711
568.3730, 95.23416
568.8551, 95.02691
569.3372, 94.38746
569.8193, 93.93655
570.3015, 94.33742
570.7836, 95.51765
571.2657, 96.04256
571.7478, 95.34727
572.2299, 94.72889
572.7120, 94.45158
573.1942, 94.29489
573.6763, 93.97720
574.1584, 93.49095
574.6405, 93.16911
575.1226, 93.50798
575.6047, 94.27824
576.0869, 94.45609
576.5690, 93.90966
577.0511, 93.31608
577.5332, 92.93319
578.0153, 92.73356
578.4974, 92.68696
578.9796, 92.83985
579.4617, 92.93230
579.9438, 92.76681
580.4259, 92.54915
580.9080, 92.59312
581.3901, 92.86423
581.8723, 92.98965
582.3544, 92.70850
582.8365, 92.15751
583.3186, 91.79964
583.8007, 91.74098
584.2828, 91.72646
584.7650, 91.78938
585.2471, 91.86106
585.7292, 91.90807
586.2113, 91.92384
586.6934, 91.89626
587.1755, 91.79612
587.6577, 91.68865
588.1398, 91.76732
588.6219, 92.07705
589.1040, 92.26562
589.5861, 92.24776
590.0682, 92.07452
590.5504, 91.69877
591.0325, 91.17395
591.5146, 90.86609
591.9967, 91.06564
592.4788, 91.37507
592.9609, 91.45385
593.4431, 91.36156
593.9252, 91.27483
594.4073, 91.25317
594.8894, 91.30624
595.3715, 91.46885
595.8536, 91.80074
596.3358, 91.96668
596.8179, 91.86130
597.3000, 91.73332
597.7821, 91.71809
598.2642, 91.71735
598.7463, 91.55383
599.2285, 91.17278
599.7106, 90.75169
600.1927, 90.50211
600.6748, 90.41837
601.1569, 90.36455
601.6390, 90.30305
602.1212, 90.34049
602.6033, 90.70919
603.0854, 91.16368
603.5675, 91.29851
604.0496, 90.99058
604.5317, 90.59090
605.0139, 90.15919
605.4960, 89.79507
605.9781, 89.71353
606.4602, 89.90762
606.9423, 90.08266
607.4244, 90.01734
607.9066, 89.77400
608.3887, 89.63351
608.8708, 89.69529
609.3529, 89.72346
609.8350, 89.71858
610.3171, 89.67172
610.7993, 89.55485
611.2814, 89.38747
611.7635, 89.21970
612.2456, 89.06423
612.7277, 88.95882
613.2098, 89.01323
613.6920, 89.24493
614.1741, 89.43675
614.6562, 89.55482
615.1383, 89.59039
615.6204, 89.51558
616.1025, 89.34493
616.5847, 89.15308
617.0668, 88.82397
617.5489, 88.60728
618.0310, 88.79521
618.5131, 89.18809
618.9952, 89.36897
619.4774, 89.21688
619.9595, 88.91468
620.4416, 88.63631
620.9237, 88.35995
621.4058, 88.43821
621.8879, 89.42266
622.3701, 90.08269
622.8522, 89.93254
623.3343, 89.47192
623.8164, 89.12537
624.2985, 89.00597
624.7806, 89.17329
625.2628, 90.00642
625.7448, 91.11809
626.2269, 91.28909
626.7090, 90.40514
627.1912, 89.68607
627.6733, 89.74557
628.1554, 90.23360
628.6375, 90.48689
629.1196, 90.44782
629.6017, 90.49599
630.0839, 90.77592
630.5660, 91.08083
631.0481, 91.24557
631.5302, 91.31976
632.0123, 91.45090
632.4944, 91.70598
632.9766, 92.01368
633.4587, 92.25658
633.9408, 92.42890
634.4229, 92.57554
634.9050, 92.76137
635.3871, 92.82902
635.8693, 92.64310
636.3514, 92.33086
636.8335, 92.04745
637.3156, 91.79356
637.7977, 91.74107
638.2798, 92.17015
638.7620, 92.83665
639.2441, 93.34138
639.7262, 93.62800
640.2083, 93.59660
640.6904, 93.08012
641.1725, 92.31289
641.6547, 92.08334
642.1368, 92.97559
642.6189, 93.55827
643.1010, 93.60600
643.5831, 93.54533
644.0652, 93.63009
644.5474, 93.83723
645.0295, 94.04964
645.5116, 94.21544
645.9937, 94.30945
646.4758, 94.25695
646.9579, 94.05956
647.4401, 93.89117
647.9222, 93.73025
648.4043, 93.70630
648.8864, 94.02552
649.3685, 94.56606
649.8506, 94.92821
650.3328, 94.92451
650.8149, 94.98482
651.2970, 95.41499
651.7791, 95.92471
652.2612, 96.08549
652.7433, 95.91137
653.2255, 95.83994
653.7076, 96.23592
654.1897, 96.89654
654.6718, 96.98287
655.1539, 96.05932
655.6360, 95.61765
656.1182, 96.31456
656.6003, 97.16421
657.0824, 97.67728
657.5645, 97.89736
658.0466, 98.04806
658.5287, 98.23387
659.0109, 98.34947
659.4930, 98.24441
659.9751, 97.99050
660.4572, 97.78185
660.9393, 97.66030
661.4214, 97.58125
661.9036, 97.48685
662.3857, 97.39514
662.8678, 97.49778
663.3499, 98.08554
663.8320, 98.48425
664.3141, 98.51985
664.7963, 98.43772
665.2784, 98.38758
665.7605, 98.40262
666.2426, 98.48701
666.7247, 98.64536
667.2068, 98.87318
667.6890, 99.20193
668.1711, 99.62672
668.6532, 99.98545
669.1353, 100.2720
669.6174, 100.4050
670.0995, 100.2353
670.5817, 99.79868
671.0638, 99.50286
671.5459, 99.31223
672.0280, 99.31325
672.5101, 99.75989
672.9922, 100.2786
673.4744, 100.3861
673.9565, 100.0936
674.4386, 99.84771
674.9207, 100.0174
675.4028, 100.4373
675.8849, 100.5131
676.3671, 100.1205
676.8492, 99.95134
677.3313, 100.3373
677.8134, 100.7630
678.2955, 100.7601
678.7776, 100.4483
679.2598, 100.2581
679.7419, 100.4045
680.2240, 100.5457
680.7061, 100.5048
681.1882, 100.3200
681.6703, 100.0160
682.1525, 99.61546
682.6346, 99.19601
683.1167, 98.80994
683.5988, 98.47236
684.0809, 98.26283
684.5630, 98.24422
685.0452, 98.21731
685.5273, 98.18439
686.0094, 98.11077
686.4915, 97.93417
686.9736, 97.69697
687.4557, 97.52781
687.9379, 97.51610
688.4200, 97.51360
688.9021, 97.33379
689.3842, 97.07110
689.8663, 96.98093
690.3484, 97.10415
690.8306, 97.21841
691.3127, 97.13244
691.7948, 96.90550
692.2769, 96.84236
692.7590, 97.14259
693.2411, 97.28780
693.7233, 97.22453
694.2054, 97.03963
694.6875, 96.68688
695.1696, 96.26209
695.6517, 95.98682
696.1339, 95.98545
696.6160, 96.08039
697.0981, 96.12154
697.5802, 96.09716
698.0623, 95.91158
698.5444, 95.53468
699.0266, 95.24578
699.5087, 95.26681
699.9908, 95.51061
700.4729, 95.65019
700.9550, 95.79042
701.4371, 95.64889
701.9193, 94.84888
702.4014, 94.11076
702.8835, 93.92429
703.3656, 94.14107
703.8477, 94.39388
704.3298, 94.53260
704.8120, 94.59203
705.2941, 94.55745
705.7762, 94.46689
706.2583, 94.55663
706.7404, 94.88834
707.2225, 95.11742
707.7046, 95.01864
708.1867, 94.70143
708.6688, 94.42984
709.1509, 94.18285
709.6331, 94.02991
710.1152, 94.15213
710.5973, 94.19533
711.0794, 93.86675
711.5615, 93.33131
712.0436, 92.88747
712.5258, 92.64236
713.0079, 92.51565
713.4900, 92.40468
713.9721, 92.32588
714.4542, 92.39134
714.9363, 92.62502
715.4185, 92.89334
715.9006, 93.24152
716.3827, 93.48093
716.8648, 93.18176
717.3469, 92.20998
717.8290, 91.56962
718.3112, 91.56482
718.7933, 91.67596
719.2754, 91.65344
719.7575, 91.58001
720.2396, 91.60799
720.7217, 91.76933
721.2039, 91.96148
721.6860, 92.10483
722.1681, 92.19361
722.6502, 92.21975
723.1323, 92.19296
723.6144, 92.00414
724.0966, 91.53434
724.5787, 91.01565
725.0608, 90.72511
725.5429, 90.65736
726.0250, 90.62221
726.5071, 90.83222
726.9893, 90.80730
727.4714, 90.09375
727.9535, 89.22048
728.4356, 88.79148
728.9177, 88.86268
729.3998, 89.13132
729.8820, 89.41032
730.3641, 89.67893
730.8462, 89.95520
731.3283, 90.24892
731.8104, 90.16593
732.2925, 89.48186
732.7747, 88.74788
733.2568, 88.40993
733.7389, 88.41115
734.2210, 88.39980
734.7031, 88.35294
735.1852, 88.32752
735.6674, 88.44859
736.1495, 88.50328
736.6316, 88.23059
737.1137, 87.73631
737.5958, 87.34187
738.0779, 87.20668
738.5601, 87.20584
739.0422, 87.15611
739.5243, 87.06747
740.0064, 87.04737
740.4885, 87.12185
740.9706, 87.19223
741.4528, 87.23694
741.9349, 87.21957
742.4170, 87.02074
742.8991, 86.54310
743.3812, 86.23551
743.8633, 86.18249
744.3455, 86.25814
744.8276, 86.59722
745.3097, 86.94475
745.7918, 86.84177
746.2739, 86.20067
746.7560, 85.52508
747.2382, 85.34084
747.7203, 85.49612
748.2024, 85.50549
748.6845, 85.36337
749.1666, 85.34981
749.6487, 85.61529
750.1309, 85.90185
750.6130, 85.88280
751.0951, 85.53475
751.5772, 85.30370
752.0593, 85.19849
752.5414, 85.18624
753.0236, 85.30058
753.5057, 85.47353
753.9878, 85.69718
754.4699, 85.92706
754.9520, 86.03660
755.4341, 85.91526
755.9163, 85.72146
756.3984, 85.73823
756.8805, 85.88790
757.3626, 85.77116
757.8447, 85.30357
758.3268, 84.88467
758.8090, 84.79772
759.2911, 84.97238
759.7732, 85.17506
760.2553, 85.45271
760.7374, 85.67673
761.2195, 85.94156
761.7017, 86.06075
762.1838, 85.83994
762.6659, 85.45535
763.1480, 85.19332
763.6301, 85.13736
764.1122, 85.09816
764.5944, 84.88306
765.0765, 84.62350
765.5586, 84.58129
766.0407, 84.71253
766.5228, 84.68849
767.0049, 84.36620
767.4871, 84.05177
767.9692, 84.18056
768.4513, 84.77821
768.9334, 85.16772
769.4155, 85.28346
769.8976, 85.29271
770.3798, 85.03562
770.8619, 84.84364
771.3440, 85.13066
771.8261, 85.77277
772.3082, 86.09345
772.7903, 85.63496
773.2725, 85.08593
773.7546, 84.92764
774.2367, 84.98867
774.7188, 84.95866
775.2009, 84.83570
775.6830, 84.92908
776.1652, 85.47820
776.6473, 86.20722
777.1294, 86.45476
777.6115, 86.17052
778.0936, 85.71255
778.5757, 84.92906
779.0579, 84.29301
779.5400, 84.08483
780.0221, 84.18156
780.5042, 84.40874
780.9863, 84.79681
781.4684, 85.14421
781.9506, 85.42590
782.4327, 85.62843
782.9148, 85.72684
783.3969, 85.74679
783.8790, 85.70467
784.3611, 85.61760
784.8433, 85.55131
785.3254, 85.56351
785.8075, 85.64415
786.2896, 85.82320
786.7717, 86.10434
787.2538, 86.13101
787.7360, 85.72598
788.2181, 85.32173
788.7002, 85.37695
789.1823, 85.81103
789.6644, 85.93533
790.1465, 85.39008
790.6286, 85.06824
791.1107, 85.20811
791.5928, 85.43100
792.0750, 85.48682
792.5571, 85.43315
793.0392, 85.44884
793.5213, 85.60740
794.0034, 85.75854
794.4855, 85.69862
794.9677, 85.57113
795.4498, 85.72594
795.9319, 86.11911
796.4140, 86.30423
796.8961, 86.08232
797.3782, 85.73875
797.8604, 85.68635
798.3425, 85.94401
798.8246, 85.99995
799.3067, 85.67583
799.7888, 85.47170
800.2709, 85.68436
800.7531, 85.92400
801.2352, 85.85014
801.7173, 85.52621
802.1994, 85.30181
802.6815, 85.26649
803.1636, 85.35129
803.6458, 85.59776
804.1279, 85.89787
804.6100, 86.14866
805.0921, 86.32894
805.5742, 86.43773
806.0563, 86.47337
806.5385, 86.43506
807.0206, 86.26430
807.5027, 85.98205
807.9848, 85.92193
808.4669, 86.15067
808.9490, 86.32098
809.4312, 86.25082
809.9133, 86.08128
810.3954, 86.01212
810.8775, 86.05209
811.3596, 86.15191
811.8417, 86.45946
812.3239, 86.63834
812.8060, 86.55543
813.2881, 86.33305
813.7702, 85.99927
814.2523, 85.62630
814.7344, 85.42165
815.2166, 85.53774
815.6987, 85.75639
816.1808, 85.86430
816.6629, 85.89932
817.1450, 85.96922
817.6271, 86.07240
818.1093, 86.05210
818.5914, 85.79743
819.0735, 85.49401
819.5556, 85.53819
820.0377, 86.01101
820.5198, 86.31422
821.0020, 86.40182
821.4841, 86.40866
821.9662, 86.39394
822.4483, 86.31276
822.9304, 86.02341
823.4125, 85.54285
823.8947, 85.35165
824.3768, 85.77158
824.8589, 86.22871
825.3410, 86.57190
825.8231, 86.76010
826.3052, 86.69439
826.7874, 86.42606
827.2695, 86.13561
827.7516, 85.91491
828.2337, 85.75517
828.7158, 85.65324
829.1979, 85.60176
829.6801, 85.56966
830.1622, 85.55415
830.6443, 85.56568
831.1264, 85.61159
831.6085, 85.68127
832.0906, 85.76434
832.5728, 85.86873
833.0549, 85.91804
833.5370, 85.80180
834.0191, 85.79044
834.5012, 86.08050
834.9833, 86.38321
835.4655, 86.42745
835.9476, 86.25557
836.4297, 86.13968
836.9118, 86.17662
837.3939, 86.26244
837.8760, 86.41328
838.3582, 86.53529
838.8403, 86.44333
839.3224, 86.21533
839.8045, 86.14297
840.2866, 86.36475
840.7687, 86.68948
841.2509, 86.92870
841.7330, 87.05535
842.2151, 86.78756
842.6972, 86.08156
843.1793, 85.69036
843.6614, 85.95724
844.1436, 86.44186
844.6257, 86.65011
845.1078, 86.58763
845.5899, 86.50252
846.0720, 86.38299
846.5541, 86.25582
847.0363, 86.05013
847.5184, 85.90520
848.0005, 85.96182
848.4826, 86.13618
848.9647, 86.24207
849.4468, 86.23327
849.9290, 86.15020
850.4111, 85.96233
850.8932, 85.75301
851.3753, 85.59386
851.8574, 85.48561
852.3395, 85.42786
852.8217, 85.41519
853.3038, 85.39928
853.7859, 85.30949
854.2680, 85.20174
854.7501, 85.31051
855.2322, 85.63596
855.7144, 85.75326
856.1965, 85.53129
856.6786, 85.30494
857.1607, 85.36266
857.6428, 85.57677
858.1249, 85.52137
858.6071, 84.98003
859.0892, 84.63863
859.5713, 84.73630
860.0534, 84.74799
860.5355, 84.33566
861.0176, 83.82248
861.4998, 83.63086
861.9819, 83.79390
862.4640, 83.95418
862.9461, 83.92680
863.4282, 83.89476
863.9103, 84.11871
864.3925, 84.34394
864.8746, 84.13124
865.3567, 83.52174
865.8388, 82.92786
866.3209, 82.58263
866.8030, 82.41911
867.2852, 82.39750
867.7673, 82.48146
868.2494, 82.47881
868.7315, 82.37776
869.2136, 82.19899
869.6957, 81.92800
870.1779, 81.65839
870.6600, 81.51195
871.1421, 81.48857
871.6242, 81.56321
872.1063, 81.91289
872.5884, 82.04803
873.0705, 81.75022
873.5526, 81.34046
874.0347, 80.96095
874.5168, 80.62277
874.9990, 80.32922
875.4811, 80.07726
875.9632, 79.88847
876.4453, 79.85986
876.9274, 79.81270
877.4095, 79.52819
877.8917, 79.16451
878.3738, 79.07112
878.8559, 79.27874
879.3380, 79.35699
879.8201, 78.82016
880.3022, 78.14064
880.7844, 78.26927
881.2665, 78.93555
881.7486, 79.08506
882.2307, 78.57380
882.7128, 77.99268
883.1949, 77.70842
883.6771, 77.61338
884.1592, 77.50500
884.6413, 77.39207
885.1234, 77.17500
885.6055, 76.76662
886.0876, 76.46932
886.5698, 76.41188
887.0519, 76.48485
887.5340, 76.63609
888.0161, 76.84777
888.4982, 76.85619
888.9803, 76.43104
889.4625, 76.11716
889.9446, 76.17113
890.4267, 76.21104
890.9088, 75.92318
891.3909, 75.43597
891.8730, 74.99770
892.3552, 74.66821
892.8373, 74.52396
893.3194, 74.89118
893.8015, 75.23538
894.2836, 74.82507
894.7657, 73.99161
895.2479, 73.47525
895.7300, 73.40492
896.2121, 73.39822
896.6942, 73.17468
897.1763, 72.83420
897.6584, 72.53429
898.1406, 72.28640
898.6227, 72.25171
899.1048, 72.46889
899.5869, 72.58868
900.0690, 72.43088
900.5511, 72.13480
901.0333, 71.90639
901.5154, 71.75081
901.9975, 71.52614
902.4796, 71.04653
902.9617, 70.84816
903.4438, 71.37434
903.9260, 71.87493
904.4081, 71.76412
904.8902, 71.24660
905.3723, 70.83452
905.8544, 70.56143
906.3365, 70.45602
906.8187, 70.71992
907.3008, 70.94863
907.7829, 70.87683
908.2650, 70.63017
908.7471, 70.35891
909.2292, 70.11014
909.7114, 69.92733
910.1935, 69.88970
910.6756, 69.84470
911.1577, 69.54871
911.6398, 69.16952
912.1219, 69.08764
912.6041, 69.26230
913.0862, 69.32071
913.5683, 69.08672
914.0504, 68.69442
914.5325, 68.24275
915.0146, 67.78659
915.4968, 67.69873
915.9789, 67.99630
916.4610, 68.17665
916.9431, 68.11633
917.4252, 67.87996
917.9073, 67.44519
918.3895, 66.94064
918.8716, 66.87151
919.3537, 67.53337
919.8358, 67.86776
920.3179, 67.67717
920.8000, 67.43638
921.2822, 67.25805
921.7643, 67.16905
922.2464, 67.29752
922.7285, 67.62092
923.2106, 67.65986
923.6927, 67.13481
924.1749, 66.60661
924.6570, 66.12160
925.1391, 65.79061
925.6212, 65.80991
926.1033, 66.02306
926.5854, 66.10374
927.0676, 65.95411
927.5497, 65.77821
928.0318, 65.67299
928.5139, 65.64072
928.9960, 65.76328
929.4781, 65.93239
929.9603, 65.91728
930.4424, 65.70849
930.9245, 65.49426
931.4066, 65.39429
931.8887, 65.35073
932.3708, 65.22720
932.8530, 65.07968
933.3351, 65.24393
933.8172, 65.70461
934.2993, 65.87679
934.7814, 65.52394
935.2635, 64.99958
935.7457, 64.66741
936.2278, 64.51421
936.7099, 64.49564
937.1920, 64.67112
937.6741, 64.70323
938.1563, 64.47830
938.6384, 64.27219
939.1205, 64.22395
939.6026, 64.29686
940.0847, 64.44652
940.5668, 64.70046
941.0490, 64.86730
941.5311, 64.90686
942.0132, 64.91945
942.4953, 65.04178
942.9774, 65.03834
943.4595, 64.61301
943.9417, 63.93905
944.4238, 63.46173
944.9059, 63.27460
945.3880, 63.25480
945.8701, 63.49817
946.3522, 63.74627
946.8344, 63.85012
947.3165, 63.83937
947.7986, 63.68534
948.2807, 63.45117
948.7628, 63.40222
949.2449, 63.76270
949.7271, 64.14240
950.2092, 64.13728
950.6913, 63.92957
951.1734, 63.76718
951.6555, 63.66780
952.1376, 63.63247
952.6198, 63.64823
953.1019, 63.57151
953.5840, 63.18661
954.0661, 62.70857
954.5482, 62.75709
955.0303, 63.23282
955.5124, 63.46309
955.9945, 63.35399
956.4766, 63.12659
956.9587, 62.86150
957.4409, 62.76933
957.9230, 63.31840
958.4051, 64.48594
958.8872, 64.66956
959.3693, 63.59492
959.8514, 62.69794
960.3336, 62.26775
960.8157, 62.13837
961.2978, 62.28519
961.7799, 62.58821
962.2620, 62.70500
962.7441, 62.57053
963.2263, 62.45007
963.7084, 62.31505
964.1905, 62.23473
964.6726, 62.22034
965.1547, 62.27205
965.6368, 62.49974
966.1190, 62.81448
966.6011, 62.80438
967.0832, 62.16647
967.5653, 61.71747
968.0474, 61.82088
968.5295, 61.95301
969.0117, 61.74260
969.4938, 61.42009
969.9759, 61.31880
970.4580, 61.46248
970.9401, 61.63009
971.4222, 61.70609
971.9044, 61.81205
972.3865, 62.12298
972.8686, 62.42581
973.3507, 62.45713
973.8328, 62.29455
974.3149, 62.16542
974.7971, 62.13129
975.2792, 62.04462
975.7613, 61.71722
976.2434, 61.35390
976.7255, 61.20345
977.2076, 61.23495
977.6898, 61.46563
978.1719, 61.83071
978.6540, 62.05543
979.1361, 62.01074
979.6182, 61.82821
980.1003, 61.62415
980.5825, 61.43067
981.0646, 61.43040
981.5467, 61.58043
982.0288, 61.45709
982.5109, 60.97876
982.9930, 60.60722
983.4752, 60.64265
983.9573, 60.97431
984.4394, 61.48431
984.9215, 62.17640
985.4036, 62.40804
985.8857, 62.12542
986.3679, 61.63191
986.8500, 60.89153
987.3321, 60.33061
987.8142, 60.34293
988.2963, 60.75636
988.7784, 61.04150
989.2606, 61.19059
989.7427, 61.22517
990.2248, 61.07799
990.7069, 60.94331
991.1890, 60.86444
991.6711, 60.84194
992.1533, 60.92987
992.6354, 61.08826
993.1175, 61.07134
993.5996, 60.71758
994.0817, 60.48082
994.5638, 60.44570
995.0460, 60.43382
995.5281, 60.33906
996.0102, 60.25994
996.4923, 60.35215
996.9744, 60.58480
997.4565, 60.69184
997.9387, 60.45182
998.4208, 60.36909
998.9029, 60.81281
999.3850, 61.19731
999.8671, 61.05991
1000.349, 60.67843
1000.831, 60.46269
1001.313, 60.46179
1001.796, 60.47977
1002.278, 60.42403
1002.760, 60.38757
1003.242, 60.43888
1003.724, 60.51686
1004.206, 60.56625
1004.688, 60.59700
1005.170, 60.65466
1005.653, 60.74229
1006.135, 60.77851
1006.617, 60.65658
1007.099, 60.53654
1007.581, 60.62875
1008.063, 60.77959
1008.545, 60.74311
1009.027, 60.56425
1009.509, 60.41866
1009.992, 60.37411
1010.474, 60.43318
1010.956, 60.67448
1011.438, 60.93657
1011.920, 60.97614
1012.402, 60.84486
1012.884, 60.54320
1013.366, 60.16903
1013.849, 60.19027
1014.331, 60.79779
1014.813, 61.39084
1015.295, 61.20826
1015.777, 60.58197
1016.259, 60.35786
1016.741, 60.45021
1017.223, 60.45783
1017.705, 60.32842
1018.188, 60.22593
1018.670, 60.23775
1019.152, 60.25306
1019.634, 60.07595
1020.116, 59.78289
1020.598, 59.80215
1021.080, 60.11785
1021.562, 60.27924
1022.044, 60.19928
1022.527, 60.14824
1023.009, 60.29009
1023.491, 60.50489
1023.973, 60.59530
1024.455, 60.57082
1024.937, 60.63184
1025.419, 60.81923
1025.901, 60.69839
1026.384, 60.11291
1026.866, 59.54416
1027.348, 59.27573
1027.830, 59.24211
1028.312, 59.33924
1028.794, 59.57307
1029.276, 59.83910
1029.758, 60.20208
1030.240, 60.34993
1030.723, 60.13321
1031.205, 59.90942
1031.687, 59.92597
1032.169, 60.07079
1032.651, 60.10542
1033.133, 60.00243
1033.615, 60.02501
1034.097, 60.25182
1034.579, 60.44214
1035.062, 60.64134
1035.544, 60.63836
1036.026, 60.06636
1036.508, 59.33422
1036.990, 59.38867
1037.472, 60.45280
1037.954, 61.04720
1038.436, 60.96585
1038.919, 60.73344
1039.401, 60.28163
1039.883, 59.87706
1040.365, 59.71828
1040.847, 59.71920
1041.329, 59.69656
1041.811, 59.63435
1042.293, 59.63559
1042.776, 59.79647
1043.258, 59.88958
1043.740, 59.79439
1044.222, 59.69838
1044.704, 59.75475
1045.186, 59.88554
1045.668, 59.93011
1046.150, 59.86488
1046.632, 59.80983
1047.115, 59.72099
1047.597, 59.72165
1048.079, 59.94723
1048.561, 60.16887
1049.043, 60.31039
1049.525, 60.30635
1050.007, 59.95369
1050.489, 59.17605
1050.971, 58.73609
1051.454, 59.13192
1051.936, 59.40678
1052.418, 59.13286
1052.900, 58.77961
1053.382, 58.65397
1053.864, 58.71125
1054.346, 58.88569
1054.828, 59.17427
1055.311, 59.29146
1055.793, 59.02174
1056.275, 58.75952
1056.757, 58.62674
1057.239, 58.56283
1057.721, 58.53152
1058.203, 58.53223
1058.685, 58.60643
1059.167, 58.75452
1059.650, 58.78517
1060.132, 58.59143
1060.614, 58.32983
1061.096, 57.80992
1061.578, 57.48672
1062.060, 57.98617
1062.542, 58.79387
1063.024, 58.98156
1063.506, 58.44720
1063.989, 57.98300
1064.471, 57.94287
1064.953, 57.92718
1065.435, 57.75452
1065.917, 57.56056
1066.399, 57.43811
1066.881, 57.37013
1067.363, 57.30095
1067.846, 57.23475
1068.328, 57.27774
1068.810, 57.61748
1069.292, 57.81450
1069.774, 57.50481
1070.256, 57.14956
1070.738, 57.17904
1071.220, 57.33828
1071.703, 57.18052
1072.185, 56.71413
1072.667, 56.37960
1073.149, 56.35447
1073.631, 56.44518
1074.113, 56.66366
1074.595, 56.85935
1075.077, 56.94599
1075.559, 56.92900
1076.042, 56.77983
1076.524, 56.53615
1077.006, 56.33433
1077.488, 56.19432
1077.970, 56.18396
1078.452, 56.46622
1078.934, 56.74477
1079.416, 56.93625
1079.898, 56.92968
1080.380, 56.43816
1080.863, 55.63960
1081.345, 55.15099
1081.827, 55.19905
1082.309, 55.38172
1082.791, 55.64278
1083.273, 55.83928
1083.755, 55.82030
1084.237, 55.73893
1084.720, 55.80716
1085.202, 55.95187
1085.684, 55.91493
1086.166, 55.60778
1086.648, 55.33543
1087.130, 55.18118
1087.612, 55.15022
1088.094, 55.39318
1088.577, 55.63135
1089.059, 55.53095
1089.541, 55.24306
1090.023, 55.12751
1090.505, 55.25848
1090.987, 55.40989
1091.469, 55.64598
1091.951, 55.68897
1092.433, 55.24530
1092.916, 54.73345
1093.398, 54.43959
1093.880, 54.33472
1094.362, 54.36783
1094.844, 54.51510
1095.326, 54.62259
1095.808, 54.61995
1096.290, 54.60297
1096.772, 54.65331
1097.255, 54.64486
1097.737, 54.36306
1098.219, 54.05534
1098.701, 54.13048
1099.183, 54.54467
1099.665, 54.76908
1100.147, 54.61229
1100.629, 54.40450
1101.112, 54.18112
1101.594, 53.98423
1102.076, 53.77622
1102.558, 53.64829
1103.040, 53.80867
1103.522, 54.13875
1104.004, 54.16199
1104.486, 53.66774
1104.969, 53.32143
1105.451, 53.23372
1105.933, 53.32142
1106.415, 53.68809
1106.897, 54.09682
1107.379, 54.45054
1107.861, 54.67952
1108.343, 54.58343
1108.825, 54.05671
1109.307, 53.73826
1109.790, 53.90733
1110.272, 53.96965
1110.754, 53.62248
1111.236, 53.33151
1111.718, 53.48055
1112.200, 53.81652
1112.682, 53.93948
1113.164, 53.84031
1113.647, 53.61811
1114.129, 52.96886
1114.611, 52.71151
1115.093, 53.21589
1115.575, 53.69471
1116.057, 53.87140
1116.539, 53.80110
1117.021, 53.43047
1117.504, 52.83888
1117.986, 52.62799
1118.468, 52.97374
1118.950, 53.29244
1119.432, 53.63672
1119.914, 53.83678
1120.396, 53.82988
1120.878, 53.66634
1121.360, 53.31873
1121.843, 52.89563
1122.325, 52.71878
1122.807, 52.80894
1123.289, 53.05027
1123.771, 53.53026
1124.253, 53.87281
1124.735, 54.00861
1125.217, 53.93726
1125.699, 53.59194
1126.182, 53.18849
1126.664, 53.13808
1127.146, 53.40847
1127.628, 53.35825
1128.110, 52.93218
1128.592, 52.70626
1129.074, 52.78094
1129.556, 52.86424
1130.039, 52.82402
1130.521, 52.74494
1131.003, 52.73584
1131.485, 52.74602
1131.967, 52.54681
1132.449, 52.15932
1132.931, 51.97162
1133.413, 52.00213
1133.896, 52.12335
1134.378, 52.29576
1134.860, 52.42497
1135.342, 52.43237
1135.824, 52.38147
1136.306, 52.38116
1136.788, 52.42189
1137.270, 52.46872
1137.752, 52.52205
1138.234, 52.60817
1138.717, 52.71805
1139.199, 52.72631
1139.681, 52.56793
1140.163, 52.46197
1140.645, 52.73000
1141.127, 53.14196
1141.609, 53.33482
1142.091, 53.32064
1142.574, 53.02206
1143.056, 52.54287
1143.538, 52.18477
1144.020, 52.04857
1144.502, 52.08784
1144.984, 52.32441
1145.466, 52.59067
1145.948, 52.79034
1146.431, 52.85453
1146.913, 52.49617
1147.395, 52.02717
1147.877, 52.13884
1148.359, 52.76636
1148.841, 53.13727
1149.323, 52.90632
1149.805, 52.51507
1150.287, 52.05389
1150.770, 51.74512
1151.252, 51.82219
1151.734, 52.07638
1152.216, 52.33165
1152.698, 52.55724
1153.180, 52.76069
1153.662, 52.94326
1154.144, 53.04625
1154.626, 53.03416
1155.109, 52.96328
1155.591, 52.81472
1156.073, 52.65487
1156.555, 52.44466
1157.037, 52.29892
1157.519, 52.48405
1158.001, 52.91667
1158.483, 52.95221
1158.966, 52.19812
1159.448, 51.76063
1159.930, 51.94704
1160.412, 52.12698
1160.894, 52.04831
1161.376, 52.00862
1161.858, 52.33726
1162.340, 52.79646
1162.822, 52.84571
1163.305, 52.44208
1163.787, 52.07263
1164.269, 51.67044
1164.751, 51.52153
1165.233, 51.73380
1165.715, 52.01384
1166.197, 52.26793
1166.679, 52.40565
1167.161, 52.28639
1167.644, 51.99706
1168.126, 51.90913
1168.608, 52.03020
1169.090, 52.12925
1169.572, 52.19759
1170.054, 52.16585
1170.536, 52.01149
1171.018, 51.92966
1171.500, 52.06626
1171.983, 52.26815
1172.465, 52.26378
1172.947, 52.13357
1173.429, 52.19525
1173.911, 52.36989
1174.393, 52.31451
1174.875, 52.04108
1175.357, 51.81880
1175.840, 51.75655
1176.322, 51.86613
1176.804, 52.21716
1177.286, 52.60636
1177.768, 52.81493
1178.250, 52.87565
1178.732, 52.83864
1179.214, 52.69008
1179.697, 52.28200
1180.179, 51.70932
1180.661, 51.41540
1181.143, 51.60311
1181.625, 51.91275
1182.107, 52.27792
1182.589, 52.50901
1183.071, 52.33164
1183.553, 52.09361
1184.036, 52.10023
1184.518, 52.31080
1185.000, 52.68037
1185.482, 53.17580
1185.964, 53.42104
1186.446, 53.26947
1186.928, 52.96550
1187.410, 52.33437
1187.892, 51.82701
1188.375, 51.65028
1188.857, 51.67327
1189.339, 51.87980
1189.821, 52.15734
1190.303, 52.14520
1190.785, 51.75844
1191.267, 51.60543
1191.749, 51.82242
1192.232, 51.84832
1192.714, 51.44695
1193.196, 51.33195
1193.678, 51.97559
1194.160, 52.72411
1194.642, 52.73552
1195.124, 52.23310
1195.606, 52.10636
1196.089, 52.34013
1196.571, 52.57738
1197.053, 52.79566
1197.535, 52.92547
1198.017, 52.94905
1198.499, 52.88546
1198.981, 52.74574
1199.463, 52.53098
1199.945, 52.13437
1200.427, 51.74896
1200.910, 51.86248
1201.392, 52.24651
1201.874, 52.41431
1202.356, 52.36792
1202.838, 52.27360
1203.320, 52.19125
1203.802, 52.14085
1204.284, 52.11479
1204.767, 52.18251
1205.249, 52.51246
1205.731, 52.83327
1206.213, 52.93227
1206.695, 52.87819
1207.177, 52.76405
1207.659, 52.58312
1208.141, 52.19563
1208.624, 51.54163
1209.106, 51.29329
1209.588, 52.13699
1210.070, 52.61377
1210.552, 52.03918
1211.034, 51.48429
1211.516, 51.54380
1211.998, 51.82706
1212.480, 51.97091
1212.963, 52.00634
1213.445, 52.04249
1213.927, 52.06450
1214.409, 52.16224
1214.891, 52.34729
1215.373, 52.57890
1215.855, 52.87742
1216.337, 53.09381
1216.819, 53.15528
1217.302, 53.05108
1217.784, 52.72198
1218.266, 52.29345
1218.748, 52.18785
1219.230, 52.33972
1219.712, 52.42530
1220.194, 52.44036
1220.676, 52.53040
1221.159, 52.68200
1221.641, 52.53832
1222.123, 51.89189
1222.605, 51.26257
1223.087, 51.19004
1223.569, 51.39233
1224.051, 51.63832
1224.533, 51.89138
1225.016, 52.09876
1225.498, 52.27489
1225.980, 52.51738
1226.462, 52.78936
1226.944, 52.79226
1227.426, 52.28508
1227.908, 51.90702
1228.390, 51.91135
1228.872, 52.04391
1229.354, 52.42049
1229.837, 52.66612
1230.319, 52.24095
1230.801, 51.61741
1231.283, 51.76727
1231.765, 52.65129
1232.247, 52.82433
1232.729, 51.87324
1233.211, 51.53101
1233.694, 52.06898
1234.176, 52.50959
1234.658, 52.55529
1235.140, 52.44622
1235.622, 52.33815
1236.104, 52.25340
1236.586, 52.23450
1237.068, 52.26945
1237.551, 52.29757
1238.033, 52.33282
1238.515, 52.48069
1238.997, 52.70857
1239.479, 52.81441
1239.961, 52.75117
1240.443, 52.63468
1240.925, 52.51545
1241.407, 52.48833
1241.890, 52.76357
1242.372, 53.05019
1242.854, 53.09578
1243.336, 52.95882
1243.818, 52.60349
1244.300, 52.17920
1244.782, 51.96748
1245.264, 52.00534
1245.746, 52.11470
1246.229, 52.30608
1246.711, 52.46126
1247.193, 52.69685
1247.675, 52.70159
1248.157, 52.11017
1248.639, 51.57570
1249.121, 51.61922
1249.603, 51.95060
1250.085, 52.03176
1250.568, 51.88598
1251.050, 51.95400
1251.532, 52.26552
1252.014, 52.42628
1252.496, 52.39687
1252.978, 52.56612
1253.460, 53.04894
1253.942, 53.42579
1254.425, 53.40724
1254.907, 53.13768
1255.389, 52.64162
1255.871, 52.16521
1256.353, 52.26497
1256.835, 52.68079
1257.317, 53.02787
1257.799, 53.22712
1258.281, 53.15001
1258.764, 52.84505
1259.246, 52.70430
1259.728, 52.95224
1260.210, 53.15916
1260.692, 53.11034
1261.174, 52.99380
1261.656, 52.76217
1262.138, 52.63549
1262.620, 52.95853
1263.103, 53.38953
1263.585, 53.28918
1264.067, 52.75047
1264.549, 52.59871
1265.031, 52.98853
1265.513, 53.24483
1265.995, 53.35802
1266.477, 53.35087
1266.960, 53.21932
1267.442, 52.98480
1267.924, 52.63321
1268.406, 52.43687
1268.888, 52.79788
1269.370, 53.39967
1269.852, 53.43705
1270.334, 53.16282
1270.817, 53.23438
1271.299, 53.55671
1271.781, 53.81911
1272.263, 53.94509
1272.745, 53.87868
1273.227, 53.59769
1273.709, 53.44132
1274.191, 53.74885
1274.673, 54.04054
1275.156, 54.08549
1275.638, 54.02510
1276.120, 53.90818
1276.602, 53.77362
1277.084, 53.56579
1277.566, 53.38858
1278.048, 53.62215
1278.530, 54.36057
1279.012, 54.59737
1279.495, 54.11774
1279.977, 53.92744
1280.459, 54.18621
1280.941, 54.46405
1281.423, 54.60888
1281.905, 54.72076
1282.387, 54.89668
1282.869, 54.99494
1283.352, 54.61567
1283.834, 54.05835
1284.316, 53.96150
1284.798, 54.32793
##END=



