##NAMES=Perroudite
##RRUFFID=R060699
##IDEAL CHEMISTRY=Ag^1+^_4_Hg^2+^_5_S^2-^_5_(I^1-^,Br^1-^)_2_Cl_2_
##LOCALITY=Copiapo, Chile
##OWNER=RRUFF
##SOURCE=Bob Jenkins
##DESCRIPTION=Reddish brown thin bladed crystals associated with white cerussite
##STATUS=The identification of this mineral has been confirmed by X-ray diffraction.
##URL=rruff.info/R060699
157.205, 15759.580
157.687, 15812.290
158.169, 15887.760
158.651, 15974.210
159.133, 16061.400
159.615, 16176.160
160.097, 16339.330
160.579, 16544.180
161.062, 16762.850
161.544, 16985.439
162.026, 17209.359
162.508, 17422.721
162.990, 17602.789
163.472, 17800.949
163.954, 18041.730
164.436, 18323.070
164.919, 18639.279
165.401, 19030.320
165.883, 19481.080
166.365, 19801.539
166.847, 19822.801
167.329, 19881.330
167.811, 19948.539
168.293, 20200.115
168.775, 20406.967
169.258, 20571.441
169.740, 20566.727
170.222, 20780.484
170.704, 20926.881
171.186, 21018.561
171.668, 21131.570
172.150, 21257.250
172.632, 21385.020
173.115, 21504.180
173.597, 21614.600
174.079, 21733.641
174.561, 21879.820
175.043, 22020.420
175.525, 22133.090
176.007, 22223.721
176.489, 22316.590
176.971, 22437.760
177.454, 22590.461
177.936, 22732.891
178.418, 22856.301
178.900, 22974.740
179.382, 23102.811
179.864, 23234.650
180.346, 23347.391
180.828, 23412.600
181.311, 23423.801
181.793, 23446.689
182.275, 23518.580
182.757, 23569.881
183.239, 23563.510
183.721, 23506.869
184.203, 23436.750
184.685, 23390.270
185.167, 23372.820
185.650, 23327.711
186.132, 23258.320
186.614, 23154.240
187.096, 22988.850
187.578, 22777.020
188.060, 22566.350
188.542, 22399.051
189.024, 22280.971
189.507, 22158.920
189.989, 22029.850
190.471, 21899.910
190.953, 21765.891
191.435, 21631.949
191.917, 21507.740
192.399, 21402.471
192.881, 21317.859
193.363, 21235.430
193.846, 21141.930
194.328, 21063.211
194.810, 21020.301
195.292, 21002.330
195.774, 20978.500
196.256, 20915.760
196.738, 20810.109
197.220, 20751.100
197.702, 20783.170
198.185, 20824.881
198.667, 20860.660
199.149, 20887.471
199.631, 20904.600
200.113, 20910.789
200.595, 20905.990
201.077, 20898.779
201.559, 20857.811
202.042, 20845.289
202.524, 20898.490
203.006, 20994.381
203.488, 21085.029
203.970, 21135.660
204.452, 21147.891
204.934, 21152.520
205.416, 21120.199
205.898, 21110.590
206.381, 21156.750
206.863, 21234.939
207.345, 21300.859
207.827, 21322.010
208.309, 21304.900
208.791, 21308.119
209.273, 21340.221
209.755, 21385.730
210.238, 21450.730
210.720, 21524.740
211.202, 21593.289
211.684, 21647.490
212.166, 21688.779
212.648, 21723.930
213.130, 21744.109
213.612, 21768.779
214.094, 21802.711
214.577, 21842.840
215.059, 21886.869
215.541, 21934.090
216.023, 21981.930
216.505, 22022.449
216.987, 22062.811
217.469, 22083.301
217.951, 22079.330
218.434, 22056.990
218.916, 22019.211
219.398, 21966.311
219.880, 21907.289
220.362, 21867.680
220.844, 21869.410
221.326, 21852.551
221.808, 21788.820
222.290, 21714.199
222.773, 21666.641
223.255, 21660.100
223.737, 21673.420
224.219, 21662.551
224.701, 21609.820
225.183, 21570.039
225.665, 21559.660
226.147, 21557.039
226.629, 21547.461
227.112, 21526.199
227.594, 21494.471
228.076, 21446.740
228.558, 21365.141
229.040, 21320.039
229.522, 21350.391
230.004, 21395.180
230.486, 21411.449
230.969, 21393.160
231.451, 21371.770
231.933, 21391.311
232.415, 21465.551
232.897, 21520.500
233.379, 21538.039
233.861, 21543.529
234.343, 21542.170
234.825, 21537.631
235.307, 21539.641
235.790, 21558.961
236.272, 21596.939
236.754, 21639.020
237.236, 21698.990
237.718, 21749.980
238.200, 21769.301
238.682, 21765.381
239.165, 21770.381
239.647, 21819.199
240.129, 21908.910
240.611, 21970.699
241.093, 21972.520
241.575, 21985.551
242.057, 22054.061
242.539, 22159.250
243.021, 22253.980
243.503, 22299.330
243.986, 22310.730
244.468, 22357.180
244.950, 22461.789
245.432, 22562.721
245.914, 22629.330
246.396, 22674.449
246.878, 22716.369
247.361, 22752.211
247.843, 22798.510
248.325, 22900.570
248.807, 23081.900
249.289, 23255.439
249.771, 23374.029
250.253, 23466.240
250.735, 23561.189
251.217, 23658.850
251.699, 23776.230
252.182, 23944.680
252.664, 24170.039
253.146, 24401.010
253.628, 24609.449
254.110, 24816.070
254.592, 25044.260
255.074, 25298.840
255.556, 25567.539
256.039, 25834.080
256.521, 26099.721
257.003, 26385.260
257.485, 26699.320
257.967, 27037.340
258.449, 27388.100
258.931, 27749.631
259.413, 28135.789
259.896, 28555.881
260.378, 29009.990
260.860, 29490.289
261.342, 29995.289
261.824, 30536.449
262.306, 31125.369
262.788, 31757.211
263.270, 32442.289
263.752, 33197.012
264.235, 34009.941
264.717, 34858.449
265.199, 35738.449
265.681, 36673.711
266.163, 37696.219
266.645, 38802.719
267.127, 39965.141
267.609, 41192.898
268.091, 42466.871
268.574, 43771.801
269.056, 45103.828
269.538, 46465.730
270.020, 47858.648
270.502, 49279.781
270.984, 50661.031
271.466, 52024.719
271.948, 53329.859
272.431, 54573.570
272.913, 55746.211
273.395, 56804.191
273.877, 57741.211
274.359, 58534.980
274.841, 59111.250
275.323, 59516.109
275.805, 59698.148
276.288, 59624.180
276.770, 59317.289
277.252, 58808.781
277.734, 58102.660
278.216, 57227.250
278.698, 56242.141
279.180, 55160.262
279.662, 53948.051
280.144, 52503.969
280.626, 50967.109
281.109, 49467.609
281.591, 48044.109
282.073, 46680.449
282.555, 45362.930
283.037, 44073.289
283.519, 42866.961
284.001, 41706.180
284.483, 40648.871
284.966, 39747.520
285.448, 38997.121
285.930, 38322.422
286.412, 37656.031
286.894, 36983.609
287.376, 36420.961
287.858, 35990.879
288.340, 35638.141
288.823, 35358.629
289.305, 35145.590
289.787, 34989.250
290.269, 34882.289
290.751, 34827.191
291.233, 34839.879
291.715, 34940.230
292.197, 35093.539
292.679, 35291.520
293.162, 35535.309
293.644, 35822.250
294.126, 36148.699
294.608, 36533.129
295.090, 37015.840
295.572, 37619.480
296.054, 38272.109
296.536, 38952.680
297.018, 39679.770
297.501, 40464.820
297.983, 41312.078
298.465, 42218.410
298.947, 43174.672
299.429, 44183.922
299.911, 45249.180
300.393, 46378.000
300.875, 47559.281
301.358, 48771.719
301.840, 50018.641
302.322, 51332.980
302.804, 52736.879
303.286, 54224.871
303.768, 55777.141
304.250, 57402.379
304.732, 59088.879
305.215, 60838.078
305.697, 62645.070
306.179, 64494.559
306.661, 66432.883
307.143, 68396.391
307.625, 70318.578
308.107, 72191.844
308.589, 74047.633
309.071, 75951.508
309.553, 77813.781
310.036, 79436.148
310.518, 80852.344
311.000, 81980.344
311.482, 82802.969
311.964, 83306.867
312.446, 83451.492
312.928, 83230.781
313.410, 82624.797
313.893, 81548.602
314.375, 80027.938
314.857, 78128.641
315.339, 75711.859
315.821, 72997.781
316.303, 70174.883
316.785, 67300.703
317.267, 64445.090
317.750, 61653.160
318.232, 58918.648
318.714, 56392.379
319.196, 54059.000
319.678, 51943.730
320.160, 50067.801
320.642, 48425.910
321.124, 46968.559
321.606, 45677.961
322.089, 44542.430
322.571, 43510.488
323.053, 42608.680
323.535, 41776.648
324.017, 41021.141
324.499, 40327.520
324.981, 39690.289
325.463, 39108.691
325.945, 38552.609
326.428, 37972.859
326.910, 37359.520
327.392, 36742.391
327.874, 36107.539
328.356, 35479.641
328.838, 34878.301
329.320, 34305.570
329.802, 33758.441
330.284, 33239.961
330.767, 32751.520
331.249, 32260.830
331.731, 31742.141
332.213, 31255.080
332.695, 30818.961
333.177, 30433.250
333.659, 30086.150
334.142, 29774.311
334.624, 29500.039
335.106, 29278.770
335.588, 29120.529
336.070, 28976.020
336.552, 28813.891
337.034, 28656.650
337.516, 28533.891
337.998, 28453.721
338.480, 28400.930
338.963, 28374.670
339.445, 28369.369
339.927, 28356.141
340.409, 28323.750
340.891, 28284.539
341.373, 28251.740
341.855, 28222.301
342.337, 28213.490
342.819, 28248.801
343.302, 28297.980
343.784, 28318.721
344.266, 28306.330
344.748, 28293.891
345.230, 28307.359
345.712, 28348.170
346.194, 28414.699
346.677, 28540.891
347.159, 28656.160
347.641, 28717.920
348.123, 28743.631
348.605, 28778.500
349.087, 28847.820
349.569, 28936.170
350.051, 28993.740
350.533, 29028.660
351.016, 29015.939
351.498, 28948.949
351.980, 28838.939
352.462, 28696.699
352.944, 28524.311
353.426, 28314.279
353.908, 28042.131
354.390, 27681.561
354.872, 27388.000
355.355, 27298.910
355.837, 27155.250
356.319, 26839.830
356.801, 26390.590
357.283, 25906.939
357.765, 25427.270
358.247, 24971.850
358.729, 24603.859
359.211, 24349.859
359.694, 24117.211
360.176, 23858.580
360.658, 23605.721
361.140, 23393.811
361.622, 23235.840
362.104, 23101.740
362.586, 22964.199
363.069, 22825.990
363.551, 22711.590
364.033, 22638.090
364.515, 22572.939
364.997, 22465.721
365.479, 22317.500
365.961, 22202.660
366.443, 22162.619
366.925, 22154.910
367.408, 22136.359
367.890, 22103.369
368.372, 22065.289
368.854, 22027.801
369.336, 21991.260
369.818, 21958.830
370.300, 21916.250
370.782, 21892.670
371.264, 21911.779
371.747, 21952.561
372.229, 21983.840
372.711, 21993.391
373.193, 21985.430
373.675, 21965.850
374.157, 21920.539
374.639, 21891.770
375.121, 21900.539
375.603, 21906.461
376.086, 21876.090
376.568, 21815.619
377.050, 21761.039
377.532, 21747.070
378.014, 21768.689
378.496, 21768.619
378.978, 21730.490
379.460, 21694.449
379.943, 21676.520
380.425, 21667.180
380.907, 21655.980
381.389, 21640.561
381.871, 21617.160
382.353, 21576.230
382.835, 21517.340
383.317, 21465.500
383.799, 21423.311
384.282, 21395.510
384.764, 21389.270
385.246, 21404.279
385.728, 21419.051
386.210, 21435.150
386.692, 21441.830
387.174, 21413.770
387.656, 21348.660
388.138, 21289.949
388.621, 21269.131
389.103, 21283.260
389.585, 21299.391
390.067, 21322.449
390.549, 21341.811
391.031, 21349.221
391.513, 21351.180
391.996, 21361.250
392.478, 21384.449
392.960, 21409.330
393.442, 21415.340
393.924, 21392.359
394.406, 21372.391
394.888, 21347.359
395.370, 21331.650
395.852, 21339.850
396.335, 21366.070
396.817, 21391.051
397.299, 21400.270
397.781, 21395.850
398.263, 21391.539
398.745, 21391.461
399.227, 21383.320
399.709, 21359.461
400.191, 21328.490
400.674, 21300.039
401.156, 21277.230
401.638, 21251.850
402.120, 21212.141
402.602, 21160.230
403.084, 21114.381
403.566, 21075.689
404.048, 21048.020
404.530, 21042.240
405.013, 21053.730
405.495, 21058.080
405.977, 21041.260
406.459, 21020.439
406.941, 21016.301
407.423, 21025.881
407.905, 21024.471
408.387, 20993.740
408.870, 20948.920
409.352, 20940.211
409.834, 20999.199
410.316, 21044.820
410.798, 21062.500
411.280, 21064.641
411.762, 21059.910
412.244, 21051.410
412.727, 21042.020
413.209, 21033.570
413.691, 21024.949
414.173, 21027.430
414.655, 21064.340
415.137, 21086.900
415.619, 21066.820
416.101, 21028.080
416.583, 21007.570
417.065, 21022.350
417.548, 21056.750
418.030, 21094.949
418.512, 21141.551
418.994, 21152.051
419.476, 21085.320
419.958, 21009.391
420.440, 20988.570
420.922, 21018.609
421.405, 21040.770
421.887, 21022.289
422.369, 20983.080
422.851, 20947.811
423.333, 20918.279
423.815, 20900.100
424.297, 20900.580
424.779, 20914.260
425.262, 20918.680
425.744, 20903.971
426.226, 20894.721
426.708, 20899.900
427.190, 20912.920
427.672, 20932.141
428.154, 20954.900
428.636, 20964.660
429.118, 20939.080
429.601, 20870.320
430.083, 20814.721
430.565, 20773.961
431.047, 20744.461
431.529, 20730.699
432.011, 20726.369
432.493, 20720.250
432.975, 20706.170
433.457, 20693.061
433.940, 20705.920
434.422, 20754.619
434.904, 20765.359
435.386, 20677.420
435.868, 20590.160
436.350, 20596.449
436.832, 20687.699
437.314, 20761.330
437.797, 20751.070
438.279, 20703.850
438.761, 20689.131
439.243, 20709.010
439.725, 20727.170
440.207, 20721.230
440.689, 20699.590
441.171, 20691.260
441.654, 20700.350
442.136, 20713.510
442.618, 20732.721
443.100, 20751.830
443.582, 20763.391
444.064, 20766.359
444.546, 20765.539
445.028, 20765.520
445.510, 20766.170
445.992, 20766.609
446.475, 20767.529
446.957, 20766.891
447.439, 20762.359
447.921, 20756.490
448.403, 20753.980
448.885, 20756.930
449.367, 20758.529
449.849, 20752.109
450.332, 20737.820
450.814, 20706.449
451.296, 20636.721
451.778, 20579.350
452.260, 20588.381
452.742, 20647.430
453.224, 20689.010
453.706, 20686.600
454.189, 20664.400
454.671, 20639.619
455.153, 20613.221
455.635, 20584.859
456.117, 20552.070
456.599, 20523.641
457.081, 20518.500
457.563, 20554.230
458.045, 20578.820
458.528, 20578.000
459.010, 20575.859
459.492, 20594.561
459.974, 20628.570
460.456, 20652.369
460.938, 20644.490
461.420, 20615.789
461.902, 20617.590
462.384, 20672.680
462.867, 20710.949
463.349, 20693.930
463.831, 20669.600
464.313, 20684.510
464.795, 20742.949
465.277, 20794.980
465.759, 20794.340
466.241, 20761.070
466.724, 20748.711
467.206, 20763.320
467.688, 20783.410
468.170, 20800.859
468.652, 20812.170
469.134, 20807.330
469.616, 20772.961
470.098, 20742.000
470.581, 20724.711
471.063, 20717.480
471.545, 20718.391
472.027, 20725.820
472.509, 20732.029
472.991, 20728.230
473.473, 20713.439
473.955, 20699.869
474.437, 20693.670
474.919, 20681.260
475.402, 20656.619
475.884, 20624.900
476.366, 20590.619
476.848, 20554.850
477.330, 20524.740
477.812, 20516.670
478.294, 20528.760
478.776, 20515.141
479.259, 20453.699
479.741, 20396.090
480.223, 20393.189
480.705, 20428.070
481.187, 20453.990
481.669, 20463.840
482.151, 20460.109
482.633, 20434.189
483.116, 20396.551
483.598, 20372.359
484.080, 20370.811
484.562, 20380.590
485.044, 20382.859
485.526, 20365.730
486.008, 20386.230
486.490, 20489.740
486.972, 20579.061
487.455, 20601.939
487.937, 20581.570
488.419, 20564.211
488.901, 20572.430
489.383, 20591.779
489.865, 20597.990
490.347, 20590.051
490.829, 20575.619
491.311, 20554.779
491.794, 20528.240
492.276, 20487.260
492.758, 20438.141
493.240, 20411.760
493.722, 20440.279
494.204, 20478.439
494.686, 20480.131
495.168, 20453.449
495.651, 20431.369
496.133, 20427.250
496.615, 20432.859
497.097, 20433.750
497.579, 20424.330
498.061, 20425.551
498.543, 20458.221
499.025, 20481.551
499.508, 20464.250
499.990, 20420.490
500.472, 20383.250
500.954, 20370.000
501.436, 20374.350
501.918, 20386.891
502.400, 20410.789
502.882, 20424.600
503.364, 20410.631
503.846, 20399.949
504.329, 20424.859
504.811, 20477.711
505.293, 20513.570
505.775, 20501.840
506.257, 20476.711
506.739, 20475.279
507.221, 20491.830
507.703, 20497.051
508.186, 20476.760
508.668, 20448.779
509.150, 20446.600
509.632, 20492.609
510.114, 20506.039
510.596, 20447.410
511.078, 20395.910
511.560, 20403.420
512.042, 20450.090
512.525, 20485.930
513.007, 20483.260
513.489, 20462.869
513.971, 20465.760
514.453, 20495.551
514.935, 20521.260
515.417, 20543.230
515.899, 20551.930
516.382, 20535.500
516.864, 20498.869
517.346, 20464.131
517.828, 20429.930
518.310, 20407.180
518.792, 20411.561
519.274, 20435.539
519.756, 20457.609
520.239, 20470.180
520.721, 20475.510
521.203, 20475.180
521.685, 20462.971
522.167, 20467.631
522.649, 20521.270
523.131, 20555.801
523.613, 20523.570
524.096, 20457.971
524.578, 20415.869
525.060, 20422.100
525.542, 20453.811
526.024, 20490.279
526.506, 20530.779
526.988, 20534.109
527.470, 20479.381
527.952, 20414.369
528.435, 20369.980
528.917, 20345.350
529.399, 20341.369
529.881, 20384.930
530.363, 20421.330
530.845, 20410.430
531.327, 20376.141
531.809, 20363.070
532.291, 20381.930
532.774, 20404.369
533.256, 20394.881
533.738, 20349.689
534.220, 20328.689
534.702, 20341.520
535.184, 20368.510
535.666, 20415.961
536.148, 20469.289
536.630, 20518.330
537.113, 20560.420
537.595, 20576.711
538.077, 20528.840
538.559, 20441.061
539.041, 20393.980
539.523, 20396.619
540.005, 20420.689
540.487, 20460.529
540.969, 20504.891
541.452, 20512.170
541.934, 20449.529
542.416, 20405.490
542.898, 20408.971
543.380, 20430.811
543.862, 20448.260
544.344, 20456.789
544.826, 20457.881
545.309, 20452.330
545.791, 20440.930
546.273, 20424.939
546.755, 20399.961
547.237, 20383.189
547.719, 20382.580
548.201, 20389.551
548.683, 20398.949
549.166, 20410.250
549.648, 20422.340
550.130, 20444.010
550.612, 20459.699
551.094, 20442.311
551.576, 20400.289
552.058, 20374.029
552.540, 20382.039
553.023, 20407.600
553.505, 20421.939
553.987, 20420.840
554.469, 20419.699
554.951, 20415.990
555.433, 20414.801
555.915, 20419.900
556.397, 20428.779
556.879, 20435.881
557.362, 20438.381
557.844, 20443.029
558.326, 20463.010
558.808, 20495.811
559.290, 20517.730
559.772, 20526.400
560.254, 20521.289
560.736, 20495.199
561.218, 20453.070
561.701, 20423.711
562.183, 20409.699
562.665, 20405.631
563.147, 20418.500
563.629, 20435.680
564.111, 20439.039
564.593, 20427.920
565.075, 20420.359
565.557, 20435.920
566.040, 20467.660
566.522, 20467.359
567.004, 20418.061
567.486, 20375.480
567.968, 20355.820
568.450, 20349.070
568.932, 20356.891
569.414, 20377.609
569.896, 20378.609
570.379, 20321.561
570.861, 20254.740
571.343, 20235.850
571.825, 20257.230
572.307, 20279.420
572.789, 20285.910
573.271, 20283.770
573.753, 20285.070
574.236, 20291.350
574.718, 20296.840
575.200, 20295.420
575.682, 20300.020
576.164, 20323.820
576.646, 20354.561
577.128, 20370.770
577.610, 20363.520
578.093, 20351.381
578.575, 20354.119
579.057, 20368.080
579.539, 20380.529
580.021, 20390.420
580.503, 20393.721
580.985, 20385.000
581.467, 20367.461
581.950, 20357.670
582.432, 20356.891
582.914, 20360.619
583.396, 20374.830
583.878, 20388.420
584.360, 20391.801
584.842, 20385.000
585.324, 20373.779
585.806, 20362.660
586.289, 20348.369
586.771, 20313.590
587.253, 20251.570
587.735, 20228.971
588.217, 20285.471
588.699, 20354.189
589.181, 20360.660
589.663, 20315.240
590.145, 20287.811
590.628, 20293.471
591.110, 20315.561
591.592, 20364.689
592.074, 20418.211
592.556, 20437.750
593.038, 20414.510
593.520, 20371.250
594.002, 20328.539
594.484, 20286.801
594.967, 20263.680
595.449, 20266.500
595.931, 20273.311
596.413, 20274.779
596.895, 20277.900
597.377, 20292.770
597.859, 20320.631
598.341, 20341.430
598.823, 20336.631
599.306, 20327.381
599.788, 20344.590
600.270, 20379.570
600.752, 20394.301
601.234, 20371.109
601.716, 20330.609
602.198, 20307.330
602.680, 20305.131
603.162, 20306.529
603.645, 20320.430
604.127, 20328.279
604.609, 20324.250
605.091, 20310.490
605.573, 20286.240
606.055, 20248.689
606.537, 20220.061
607.019, 20224.529
607.502, 20247.070
607.984, 20254.391
608.466, 20244.990
608.948, 20248.480
609.430, 20286.381
609.912, 20342.971
610.394, 20371.670
610.876, 20345.891
611.359, 20337.301
611.841, 20365.381
612.323, 20389.920
612.805, 20380.410
613.287, 20351.320
613.769, 20339.660
614.251, 20366.279
614.733, 20396.619
615.216, 20384.090
615.698, 20341.789
616.180, 20321.051
616.662, 20331.980
617.144, 20342.631
617.626, 20325.199
618.108, 20287.561
618.590, 20274.010
619.072, 20315.439
619.555, 20338.779
620.037, 20328.971
620.519, 20307.881
621.001, 20279.811
621.483, 20254.480
621.965, 20256.051
622.447, 20308.150
622.929, 20374.410
623.411, 20398.391
623.894, 20383.461
624.376, 20353.881
624.858, 20307.900
625.340, 20274.641
625.822, 20286.840
626.304, 20340.400
626.786, 20365.930
627.268, 20354.010
627.750, 20330.250
628.233, 20278.820
628.715, 20232.230
629.197, 20224.891
629.679, 20254.010
630.161, 20289.920
630.643, 20318.711
631.125, 20333.490
631.607, 20305.119
632.089, 20235.971
632.572, 20212.990
633.054, 20275.180
633.536, 20344.211
634.018, 20333.260
634.500, 20242.051
634.982, 20191.350
635.464, 20210.211
635.946, 20231.471
636.429, 20233.711
636.911, 20231.840
637.393, 20246.330
637.875, 20275.900
638.357, 20298.580
638.839, 20298.920
639.321, 20279.770
639.803, 20235.910
640.286, 20166.779
640.768, 20132.080
641.250, 20156.260
641.732, 20203.311
642.214, 20242.600
642.696, 20274.109
643.178, 20272.199
643.660, 20195.320
644.143, 20137.039
644.625, 20148.420
645.107, 20177.891
645.589, 20158.990
646.071, 20090.471
646.553, 20035.840
647.035, 20055.391
647.517, 20113.400
647.999, 20123.750
648.482, 20086.730
648.964, 20052.689
649.446, 20033.920
649.928, 20028.789
650.410, 20041.840
650.892, 20075.320
651.374, 20081.711
651.856, 20027.100
652.338, 19989.000
652.821, 20000.279
653.303, 20030.881
653.785, 20051.211
654.267, 20056.670
654.749, 20057.660
655.231, 20060.551
655.713, 20064.600
656.195, 20071.260
656.677, 20079.561
657.160, 20075.490
657.642, 20051.660
658.124, 20025.490
658.606, 20016.090
659.088, 20024.000
659.570, 20029.891
660.052, 20038.471
660.534, 20039.340
661.016, 20028.740
661.499, 20010.770
661.981, 19980.289
662.463, 19943.260
662.945, 19927.461
663.427, 19969.980
663.909, 20022.580
664.391, 19994.650
664.873, 19904.850
665.356, 19857.609
665.838, 19884.699
666.320, 19922.811
666.802, 19907.830
667.284, 19843.430
667.766, 19802.080
668.248, 19794.449
668.730, 19797.020
669.213, 19819.340
669.695, 19841.250
670.177, 19845.160
670.659, 19833.631
671.141, 19822.650
671.623, 19815.881
672.105, 19818.670
672.587, 19846.910
673.070, 19888.650
673.552, 19908.189
674.034, 19898.699
674.516, 19881.930
674.998, 19875.150
675.480, 19877.330
675.962, 19885.900
676.444, 19921.160
676.926, 19922.400
677.409, 19832.500
677.891, 19752.090
678.373, 19755.400
678.855, 19816.740
679.337, 19854.301
679.819, 19833.199
680.301, 19800.600
680.783, 19786.980
681.265, 19783.051
681.748, 19773.689
682.230, 19758.180
682.712, 19745.699
683.194, 19742.150
683.676, 19746.240
684.158, 19758.971
684.640, 19787.711
685.122, 19789.221
685.604, 19741.500
686.087, 19691.070
686.569, 19662.520
687.051, 19652.279
687.533, 19656.490
688.015, 19682.529
688.497, 19704.590
688.979, 19707.590
689.461, 19707.490
689.943, 19726.119
690.426, 19754.730
690.908, 19764.760
691.390, 19742.170
691.872, 19704.789
692.354, 19673.471
692.836, 19648.990
693.318, 19647.670
693.800, 19675.641
694.283, 19706.000
694.765, 19730.160
695.247, 19744.000
695.729, 19733.410
696.211, 19682.289
696.693, 19659.631
697.175, 19698.971
697.657, 19736.199
698.140, 19733.930
698.622, 19711.109
699.104, 19702.150
699.586, 19715.260
700.068, 19720.631
700.550, 19678.529
701.032, 19614.510
701.514, 19589.500
701.997, 19600.600
702.479, 19606.609
702.961, 19591.660
703.443, 19570.680
703.925, 19562.449
704.407, 19567.740
704.889, 19578.000
705.371, 19612.500
705.853, 19625.500
706.336, 19600.260
706.818, 19556.711
707.300, 19497.090
707.782, 19429.930
708.264, 19397.930
708.746, 19451.811
709.228, 19517.660
709.710, 19535.801
710.192, 19521.920
710.675, 19501.670
711.157, 19481.650
711.639, 19462.039
712.121, 19441.750
712.603, 19423.980
713.085, 19421.520
713.567, 19436.920
714.049, 19455.900
714.531, 19482.199
715.014, 19502.471
715.496, 19503.131
715.978, 19489.631
716.460, 19478.600
716.942, 19461.990
717.424, 19463.160
717.906, 19522.859
718.388, 19573.381
718.870, 19541.381
719.353, 19454.641
719.835, 19391.949
720.317, 19388.990
720.799, 19412.740
721.281, 19421.789
721.763, 19423.551
722.245, 19455.830
722.727, 19522.080
723.210, 19561.840
723.692, 19540.971
724.174, 19487.590
724.656, 19451.750
725.138, 19438.480
725.620, 19423.520
726.102, 19412.529
726.584, 19393.131
727.067, 19343.551
727.549, 19294.881
728.031, 19286.779
728.513, 19322.420
728.995, 19357.100
729.477, 19378.570
729.959, 19382.369
730.441, 19351.221
730.924, 19302.641
731.406, 19273.289
731.888, 19271.051
732.370, 19278.141
732.852, 19279.211
733.334, 19275.910
733.816, 19277.029
734.298, 19284.750
734.780, 19277.789
735.263, 19239.689
735.745, 19208.730
736.227, 19228.150
736.709, 19283.580
737.191, 19296.051
737.673, 19220.650
738.155, 19170.500
738.637, 19179.789
739.119, 19203.131
739.602, 19207.779
740.084, 19201.160
740.566, 19207.801
741.048, 19238.900
741.530, 19272.740
742.012, 19293.369
742.494, 19300.850
742.976, 19287.369
743.458, 19256.949
743.941, 19240.850
744.423, 19254.400
744.905, 19277.721
745.387, 19279.480
745.869, 19257.051
746.351, 19244.561
746.833, 19247.980
747.315, 19248.840
747.797, 19224.961
748.280, 19208.211
748.762, 19247.859
749.244, 19339.320
749.726, 19382.641
750.208, 19320.990
750.690, 19251.840
751.172, 19221.850
751.654, 19205.721
752.137, 19164.520
752.619, 19103.609
753.101, 19068.820
753.583, 19094.580
754.065, 19144.391
754.547, 19169.971
755.029, 19172.199
755.511, 19149.320
755.994, 19100.461
756.476, 19049.381
756.958, 19008.461
757.440, 18979.689
757.922, 18969.211
758.404, 18983.740
758.886, 18998.279
759.368, 19025.480
759.851, 19036.500
760.333, 19000.211
760.815, 18953.461
761.297, 18950.500
761.779, 19000.230
762.261, 19033.211
762.743, 19005.430
763.225, 18975.939
763.707, 18988.230
764.190, 19022.980
764.672, 19049.801
765.154, 19062.369
765.636, 19071.359
766.118, 19085.391
766.600, 19100.820
767.082, 19120.461
767.564, 19139.240
768.046, 19101.230
768.529, 18986.830
769.011, 18900.250
769.493, 18927.529
769.975, 19033.939
770.457, 19096.990
770.939, 19104.801
771.421, 19094.189
771.903, 19042.600
772.385, 18999.730
772.868, 18994.369
773.350, 19008.051
773.832, 19013.199
774.314, 19006.090
774.796, 18992.789
775.278, 18970.760
775.760, 18947.850
776.242, 18930.381
776.724, 18915.730
777.207, 18898.391
777.689, 18877.561
778.171, 18857.420
778.653, 18838.180
779.135, 18825.260
779.617, 18837.010
780.099, 18868.680
780.581, 18884.170
781.064, 18874.789
781.546, 18864.461
782.028, 18873.609
782.510, 18894.740
782.992, 18898.061
783.474, 18875.471
783.956, 18855.570
784.438, 18832.051
784.920, 18821.109
785.403, 18834.391
785.885, 18863.391
786.367, 18900.170
786.849, 18949.520
787.331, 18976.289
787.813, 18953.410
788.295, 18923.400
788.778, 18911.480
789.260, 18908.900
789.742, 18901.609
790.224, 18886.900
790.706, 18870.660
791.188, 18852.430
791.670, 18840.570
792.152, 18855.510
792.634, 18887.949
793.117, 18908.551
793.599, 18911.561
794.081, 18893.631
794.563, 18849.070
795.045, 18791.619
795.527, 18761.211
796.009, 18764.131
796.491, 18759.760
796.973, 18737.850
797.456, 18726.961
797.938, 18751.939
798.420, 18789.971
798.902, 18802.189
799.384, 18788.711
799.866, 18752.670
800.348, 18644.670
800.830, 18573.090
801.312, 18605.240
801.795, 18674.590
802.277, 18711.971
802.759, 18712.619
803.241, 18712.510
803.723, 18740.170
804.205, 18757.211
804.687, 18711.350
805.169, 18641.141
805.652, 18615.801
806.134, 18634.461
806.616, 18646.490
807.098, 18623.230
807.580, 18592.211
808.062, 18606.010
808.544, 18657.971
809.026, 18676.461
809.508, 18654.750
809.991, 18645.551
810.473, 18674.971
810.955, 18712.410
811.437, 18715.760
811.919, 18683.381
812.401, 18661.480
812.883, 18658.070
813.365, 18652.150
813.847, 18643.990
814.330, 18628.801
814.812, 18592.279
815.294, 18545.551
815.776, 18525.461
816.258, 18554.949
816.740, 18576.721
817.222, 18569.539
817.705, 18548.461
818.187, 18514.250
818.669, 18478.930
819.151, 18466.789
819.633, 18484.381
820.115, 18500.160
820.597, 18481.850
821.079, 18448.080
821.561, 18419.439
822.044, 18401.230
822.526, 18422.820
823.008, 18487.500
823.490, 18536.311
823.972, 18515.801
824.454, 18452.311
824.936, 18433.301
825.418, 18464.650
825.901, 18463.391
826.383, 18405.920
826.865, 18366.131
827.347, 18393.980
827.829, 18457.590
828.311, 18492.400
828.793, 18489.410
829.275, 18490.330
829.757, 18511.600
830.240, 18515.939
830.722, 18477.750
831.204, 18430.170
831.686, 18404.279
832.168, 18399.670
832.650, 18397.150
833.132, 18390.850
833.614, 18386.051
834.096, 18380.430
834.579, 18380.900
835.061, 18405.971
835.543, 18441.900
836.025, 18448.551
836.507, 18408.211
836.989, 18366.080
837.471, 18375.740
837.953, 18408.279
838.435, 18411.840
838.918, 18390.141
839.400, 18364.711
839.882, 18342.170
840.364, 18315.770
840.846, 18274.070
841.328, 18230.090
841.810, 18239.641
842.292, 18308.439
842.774, 18346.811
843.257, 18335.199
843.739, 18319.750
844.221, 18332.090
844.703, 18356.461
845.185, 18352.740
845.667, 18303.119
846.149, 18287.131
846.631, 18339.539
847.114, 18378.260
847.596, 18373.090
848.078, 18348.119
848.560, 18324.080
849.042, 18301.400
849.524, 18276.439
850.006, 18238.770
850.488, 18211.250
850.971, 18210.180
851.453, 18214.180
851.935, 18198.820
852.417, 18174.760
852.899, 18175.490
853.381, 18215.000
853.863, 18245.150
854.345, 18215.600
854.828, 18169.131
855.310, 18163.080
855.792, 18181.080
856.274, 18176.650
856.756, 18141.500
857.238, 18109.789
857.720, 18111.051
858.202, 18129.340
858.684, 18131.631
859.167, 18120.590
859.649, 18110.270
860.131, 18102.381
860.613, 18106.311
861.095, 18129.270
861.577, 18157.939
862.059, 18168.830
862.541, 18160.801
863.023, 18154.721
863.506, 18152.920
863.988, 18145.109
864.470, 18125.029
864.952, 18103.420
865.434, 18092.721
865.916, 18090.381
866.398, 18077.590
866.880, 18026.420
867.362, 18007.721
867.845, 18064.551
868.327, 18108.660
868.809, 18086.900
869.291, 18031.010
869.773, 17986.590
870.255, 17959.529
870.737, 17943.080
871.219, 17938.980
871.701, 17940.971
872.184, 17953.900
872.666, 17965.740
873.148, 17960.100
873.630, 17940.301
874.112, 17923.689
874.594, 17917.830
875.076, 17917.350
875.558, 17920.359
876.041, 17924.020
876.523, 17921.391
877.005, 17916.051
877.487, 17921.820
877.969, 17941.449
878.451, 17957.131
878.933, 17950.770
879.415, 17930.029
879.898, 17905.090
880.380, 17879.891
880.862, 17880.439
881.344, 17910.180
881.826, 17945.141
882.308, 17973.279
882.790, 17986.410
883.272, 17960.180
883.755, 17891.961
884.237, 17866.859
884.719, 17897.279
885.201, 17910.301
885.683, 17875.180
886.165, 17834.160
886.647, 17831.770
887.129, 17861.631
887.611, 17878.221
888.094, 17881.000
888.576, 17871.330
889.058, 17838.779
889.540, 17806.730
890.022, 17785.471
890.504, 17771.900
890.986, 17758.801
891.468, 17743.529
891.950, 17749.711
892.433, 17809.961
892.915, 17852.250
893.397, 17845.930
893.879, 17820.961
894.361, 17796.131
894.843, 17775.430
895.325, 17762.760
895.807, 17761.439
896.289, 17760.949
896.772, 17743.150
897.254, 17737.449
897.736, 17791.609
898.218, 17862.359
898.700, 17872.980
899.182, 17816.859
899.664, 17759.539
900.146, 17741.359
900.628, 17737.301
901.111, 17724.631
901.593, 17707.400
902.075, 17686.529
902.557, 17667.061
903.039, 17669.100
903.521, 17700.141
904.003, 17726.820
904.485, 17701.051
904.968, 17648.260
905.450, 17638.289
905.932, 17660.381
906.414, 17655.961
906.896, 17615.869
907.378, 17594.381
907.860, 17632.820
908.342, 17697.051
908.825, 17711.641
909.307, 17679.520
909.789, 17676.461
910.271, 17708.330
910.753, 17724.801
911.235, 17705.949
911.717, 17674.699
912.199, 17651.850
912.682, 17639.160
913.164, 17653.350
913.646, 17711.689
914.128, 17727.471
914.610, 17676.199
915.092, 17618.070
915.574, 17575.840
916.056, 17552.760
916.538, 17559.369
917.021, 17601.891
917.503, 17619.449
917.985, 17587.590
918.467, 17570.119
918.949, 17605.090
919.431, 17631.340
919.913, 17591.619
920.395, 17515.289
920.877, 17479.490
921.360, 17507.260
921.842, 17516.840
922.324, 17472.939
922.806, 17440.641
923.288, 17456.789
923.770, 17488.051
924.252, 17503.010
924.734, 17500.359
925.216, 17488.980
925.699, 17457.260
926.181, 17444.631
926.663, 17483.051
927.145, 17528.461
927.627, 17561.461
928.109, 17573.230
928.591, 17539.930
929.073, 17464.301
929.555, 17413.760
930.038, 17438.301
930.520, 17481.699
931.002, 17519.131
931.484, 17542.680
931.966, 17538.600
932.448, 17512.240
932.930, 17472.580
933.412, 17423.330
933.895, 17391.859
934.377, 17419.100
934.859, 17461.510
935.341, 17462.881
935.823, 17439.689
936.305, 17425.279
936.787, 17423.000
937.269, 17416.141
937.752, 17395.051
938.234, 17372.779
938.716, 17365.369
939.198, 17368.631
939.680, 17381.000
940.162, 17396.199
940.644, 17385.510
941.126, 17344.900
941.609, 17309.850
942.091, 17310.369
942.573, 17324.949
943.055, 17306.539
943.537, 17264.420
944.019, 17250.430
944.501, 17264.891
944.983, 17266.770
945.465, 17240.619
945.948, 17213.881
946.430, 17218.600
946.912, 17242.279
947.394, 17234.930
947.876, 17197.350
948.358, 17187.061
948.840, 17213.051
949.322, 17233.400
949.804, 17226.340
950.287, 17209.301
950.769, 17205.520
951.251, 17214.689
951.733, 17238.900
952.215, 17285.461
952.697, 17293.619
953.179, 17241.260
953.661, 17195.439
954.143, 17202.029
954.626, 17233.430
955.108, 17234.949
955.590, 17203.051
956.072, 17178.150
956.554, 17157.490
957.036, 17155.150
957.518, 17185.850
958.000, 17212.900
958.482, 17206.141
958.965, 17176.369
959.447, 17154.580
959.929, 17143.359
960.411, 17130.631
960.893, 17106.051
961.375, 17101.061
961.857, 17140.789
962.339, 17184.391
962.822, 17193.170
963.304, 17173.801
963.786, 17159.221
964.268, 17155.381
964.750, 17143.850
965.232, 17109.840
965.714, 17087.109
966.196, 17095.090
966.679, 17113.869
967.161, 17124.289
967.643, 17126.859
968.125, 17126.039
968.607, 17125.500
969.089, 17116.070
969.571, 17082.619
970.053, 17057.211
970.536, 17065.301
971.018, 17082.869
971.500, 17071.740
971.982, 17032.600
972.464, 17024.180
972.946, 17100.721
973.428, 17138.881
973.910, 17094.600
974.392, 17032.301
974.875, 16969.461
975.357, 16920.900
975.839, 16912.980
976.321, 16948.631
976.803, 16976.260
977.285, 16979.320
977.767, 16982.480
978.249, 16997.471
978.731, 17009.711
979.214, 17015.561
979.696, 17008.811
980.178, 16967.490
980.660, 16883.830
981.142, 16843.631
981.624, 16916.221
982.106, 16975.420
982.588, 16965.141
983.070, 16930.199
983.553, 16903.330
984.035, 16882.570
984.517, 16853.080
984.999, 16809.020
985.481, 16783.850
985.963, 16800.270
986.445, 16823.311
986.927, 16844.930
987.409, 16859.170
987.892, 16858.439
988.374, 16846.551
988.856, 16833.670
989.338, 16822.359
989.820, 16808.859
990.302, 16781.010
990.784, 16763.250
991.266, 16779.730
991.749, 16804.240
992.231, 16811.779
992.713, 16802.600
993.195, 16786.010
993.677, 16763.650
994.159, 16738.609
994.641, 16695.801
995.123, 16669.449
995.606, 16704.080
996.088, 16749.381
996.570, 16731.789
997.052, 16671.529
997.534, 16662.160
998.016, 16749.359
998.498, 16813.230
998.980, 16770.779
999.463, 16719.029
999.945, 16707.240
1000.427, 16730.279
1000.909, 16801.471
1001.391, 16899.039
1001.873, 16954.330
1002.355, 16939.439
1002.837, 16901.740
1003.319, 16846.189
1003.802, 16793.811
1004.284, 16754.811
1004.766, 16729.750
1005.248, 16726.740
1005.730, 16738.020
1006.212, 16733.381
1006.694, 16695.369
1007.176, 16667.369
1007.658, 16679.010
1008.141, 16697.150
1008.623, 16712.000
1009.105, 16712.529
1009.587, 16673.410
1010.069, 16607.199
1010.551, 16566.891
1011.033, 16574.869
1011.515, 16593.869
1011.997, 16616.789
1012.480, 16635.199
1012.962, 16643.980
1013.444, 16644.949
1013.926, 16637.320
1014.408, 16623.939
1014.890, 16615.170
1015.372, 16617.869
1015.854, 16613.711
1016.337, 16587.930
1016.819, 16561.199
1017.301, 16538.189
1017.783, 16526.670
1018.265, 16547.660
1018.747, 16589.311
1019.229, 16601.170
1019.711, 16558.949
1020.193, 16518.000
1020.676, 16487.400
1021.158, 16475.211
1021.640, 16497.189
1022.122, 16531.689
1022.604, 16559.801
1023.086, 16578.740
1023.568, 16588.359
1024.050, 16588.689
1024.533, 16580.029
1025.015, 16547.301
1025.497, 16523.980
1025.979, 16549.131
1026.461, 16574.039
1026.943, 16534.410
1027.425, 16449.240
1027.907, 16400.869
1028.390, 16414.260
1028.872, 16432.480
1029.354, 16447.289
1029.836, 16460.391
1030.318, 16475.250
1030.800, 16486.260
1031.282, 16484.119
1031.764, 16473.711
1032.246, 16472.211
1032.729, 16485.510
1033.211, 16495.061
1033.693, 16502.520
1034.175, 16500.609
1034.657, 16474.199
1035.139, 16448.910
1035.621, 16452.699
1036.103, 16474.010
1036.585, 16477.061
1037.068, 16452.971
1037.550, 16435.900
1038.032, 16443.779
1038.514, 16436.430
1038.996, 16378.970
1039.478, 16328.850
1039.960, 16335.130
1040.442, 16375.390
1040.925, 16397.189
1041.407, 16397.260
1041.889, 16393.039
1042.371, 16378.980
1042.853, 16369.980
1043.335, 16369.710
1043.817, 16374.460
1044.299, 16392.590
1044.781, 16405.471
1045.264, 16366.460
1045.746, 16263.930
1046.228, 16229.000
1046.710, 16267.590
1047.192, 16212.430
1047.674, 16277.999
1048.156, 16314.262
1048.638, 16322.794
1049.120, 16220.538
1049.603, 16261.339
1050.085, 16244.812
1050.567, 16225.932
1051.049, 16286.871
1051.531, 16200.729
1052.013, 16260.402
1052.495, 16261.868
1052.977, 16289.975
1053.460, 16260.392
1053.942, 16248.630
1054.424, 16294.571
1054.906, 16308.562
1055.388, 16272.342
1055.870, 16302.141
1056.352, 16213.984
1056.834, 16229.336
1057.317, 16289.344
1057.799, 16236.190
1058.281, 16207.850
1058.763, 16229.750
1059.245, 16182.700
1059.727, 16078.960
1060.209, 16044.490
1060.691, 16083.140
1061.173, 16113.720
1061.656, 16109.230
1062.138, 16094.180
1062.620, 16089.440
1063.102, 16089.040
1063.584, 16077.460
1064.066, 16061.320
1064.548, 16063.710
1065.030, 16082.180
1065.512, 16105.590
1065.995, 16128.360
1066.477, 16134.570
1066.959, 16113.270
1067.441, 16073.380
1067.923, 16003.050
1068.405, 15936.740
1068.887, 15951.330
1069.369, 16014.870
1069.852, 16051.630
1070.334, 16051.750
1070.816, 16047.930
1071.298, 16056.780
1071.780, 16055.450
1072.262, 16006.820
1072.744, 15954.190
1073.226, 15940.110
1073.708, 15954.170
1074.191, 15995.630
1074.673, 16047.500
1075.155, 16068.440
1075.637, 16044.450
1076.119, 16015.170
1076.601, 15996.500
1077.083, 15987.460
1077.565, 16001.010
1078.047, 16012.000
1078.530, 15984.630
1079.012, 15941.080
1079.494, 15932.560
1079.976, 15966.390
1080.458, 15983.560
1080.940, 15947.430
1081.422, 15918.650
1081.904, 15928.880
1082.386, 15936.240
1082.869, 15904.780
1083.351, 15862.120
1083.833, 15849.420
1084.315, 15865.550
1084.797, 15869.640
1085.279, 15839.960
1085.761, 15830.060
1086.243, 15865.070
1086.726, 15888.470
1087.208, 15874.960
1087.690, 15850.290
1088.172, 15834.450
1088.654, 15827.290
1089.136, 15830.400
1089.618, 15851.580
1090.100, 15848.330
1090.583, 15807.200
1091.065, 15781.870
1091.547, 15788.530
1092.029, 15803.240
1092.511, 15808.950
1092.993, 15813.400
1093.475, 15834.250
1093.957, 15869.960
1094.439, 15888.410
1094.922, 15889.280
1095.404, 15877.460
1095.886, 15853.360
1096.368, 15824.300
1096.850, 15793.250
1097.332, 15765.780
1097.814, 15751.130
1098.296, 15741.660
1098.778, 15703.520
1099.261, 15652.700
1099.743, 15664.210
1100.225, 15729.110
1100.707, 15773.860
1101.189, 15774.930
1101.671, 15753.750
1102.153, 15721.820
1102.635, 15690.800
1103.118, 15673.440
1103.600, 15668.110
1104.082, 15685.940
1104.564, 15708.690
1105.046, 15690.400
1105.528, 15635.930
1106.010, 15602.380
1106.492, 15618.720
1106.974, 15637.410
1107.457, 15613.930
1107.939, 15595.730
1108.421, 15635.120
1108.903, 15684.350
1109.385, 15684.760
1109.867, 15651.490
1110.349, 15635.360
1110.831, 15647.870
1111.313, 15649.070
1111.796, 15612.620
1112.278, 15585.080
1112.760, 15583.200
1113.242, 15589.030
1113.724, 15591.630
1114.206, 15595.200
1114.688, 15606.740
1115.170, 15625.790
1115.653, 15647.100
1116.135, 15683.190
1116.617, 15693.520
1117.099, 15672.450
1117.581, 15633.830
1118.063, 15572.820
1118.545, 15515.510
1119.027, 15482.560
1119.510, 15472.210
1119.992, 15484.960
1120.474, 15522.580
1120.956, 15532.730
1121.438, 15514.000
1121.920, 15499.330
1122.402, 15494.970
1122.884, 15499.900
1123.366, 15514.040
1123.849, 15530.380
1124.331, 15542.010
1124.813, 15546.430
1125.295, 15531.920
1125.777, 15505.820
1126.259, 15491.690
1126.741, 15487.780
1127.223, 15473.730
1127.705, 15445.780
1128.188, 15428.980
1128.670, 15446.520
1129.152, 15466.040
1129.634, 15449.920
1130.116, 15424.430
1130.598, 15423.020
1131.080, 15429.770
1131.562, 15412.710
1132.045, 15376.600
1132.527, 15355.150
1133.009, 15361.860
1133.491, 15365.960
1133.973, 15348.350
1134.455, 15335.610
1134.937, 15356.300
1135.419, 15369.170
1135.901, 15322.340
1136.384, 15254.460
1136.866, 15244.910
1137.348, 15299.470
1137.830, 15322.300
1138.312, 15289.320
1138.794, 15275.340
1139.276, 15297.620
1139.758, 15309.810
1140.240, 15291.740
1140.723, 15263.190
1141.205, 15240.200
1141.687, 15224.610
1142.169, 15224.520
1142.651, 15240.320
1143.133, 15246.410
1143.615, 15242.800
1144.097, 15238.870
1144.580, 15236.340
1145.062, 15225.980
1145.544, 15202.340
1146.026, 15182.300
1146.508, 15188.400
1146.990, 15208.870
1147.472, 15228.260
1147.954, 15241.330
1148.437, 15234.510
1148.919, 15211.730
1149.401, 15182.730
1149.883, 15152.380
1150.365, 15130.270
1150.847, 15121.700
1151.329, 15122.500
1151.811, 15146.420
1152.293, 15160.530
1152.776, 15128.540
1153.258, 15082.500
1153.740, 15052.870
1154.222, 15042.610
1154.704, 15050.170
1155.186, 15077.540
1155.668, 15107.790
1156.150, 15154.060
1156.632, 15179.570
1157.115, 15177.410
1157.597, 15154.340
1158.079, 15092.670
1158.561, 15039.850
1159.043, 15062.790
1159.525, 15139.000
1160.007, 15157.080
1160.489, 15109.190
1160.972, 15076.310
1161.454, 15061.110
1161.936, 15056.900
1162.418, 15062.310
1162.900, 15065.180
1163.382, 15057.280
1163.864, 15050.520
1164.346, 15066.050
1164.828, 15091.310
1165.311, 15104.620
1165.793, 15102.960
1166.275, 15064.580
1166.757, 15006.270
1167.239, 14982.320
1167.721, 15003.560
1168.203, 15029.360
1168.685, 15040.800
1169.167, 15040.740
1169.650, 15016.760
1170.132, 14997.860
1170.614, 15025.260
1171.096, 15052.780
1171.578, 15008.150
1172.060, 14923.100
1172.542, 14902.500
1173.024, 14974.850
1173.507, 15010.760
1173.989, 14992.140
1174.471, 14954.390
1174.953, 14880.940
1175.435, 14827.710
1175.917, 14821.710
1176.399, 14845.220
1176.881, 14888.540
1177.364, 14934.170
1177.846, 14908.810
1178.328, 14816.270
1178.810, 14778.940
1179.292, 14796.120
1179.774, 14838.920
1180.256, 14894.580
1180.738, 14899.450
1181.220, 14820.390
1181.703, 14734.200
1182.185, 14723.650
1182.667, 14747.970
1183.149, 14760.470
1183.631, 14767.330
1184.113, 14778.350
1184.595, 14790.030
1185.077, 14791.460
1185.559, 14783.950
1186.042, 14785.830
1186.524, 14812.440
1187.006, 14817.970
1187.488, 14748.620
1187.970, 14708.020
1188.452, 14766.260
1188.934, 14834.660
1189.416, 14856.300
1189.899, 14841.340
1190.381, 14795.180
1190.863, 14722.210
1191.345, 14699.540
1191.827, 14742.740
1192.309, 14743.120
1192.791, 14687.360
1193.273, 14660.130
1193.755, 14688.550
1194.238, 14711.320
1194.720, 14682.760
1195.202, 14643.260
1195.684, 14660.810
1196.166, 14707.600
1196.648, 14732.380
1197.130, 14733.040
1197.612, 14680.490
1198.094, 14604.340
1198.577, 14596.390
1199.059, 14668.960
1199.541, 14723.890
1200.023, 14709.190
1200.505, 14679.220
1200.987, 14652.470
1201.469, 14627.240
1201.951, 14590.640
1202.434, 14565.790
1202.916, 14585.180
1203.398, 14628.740
1203.880, 14650.910
1204.362, 14651.430
1204.844, 14637.710
1205.326, 14601.440
1205.808, 14583.290
1206.291, 14588.840
1206.773, 14605.140
1207.255, 14631.200
1207.737, 14635.770
1208.219, 14590.610
1208.701, 14529.110
1209.183, 14505.600
1209.665, 14510.630
1210.147, 14532.860
1210.630, 14558.750
1211.112, 14550.030
1211.594, 14516.050
1212.076, 14492.890
1212.558, 14491.660
1213.040, 14513.760
1213.522, 14584.900
1214.004, 14619.740
1214.486, 14529.200
1214.969, 14448.600
1215.451, 14479.010
1215.933, 14528.390
1216.415, 14503.240
1216.897, 14435.620
1217.379, 14392.140
1217.861, 14372.670
1218.343, 14406.380
1218.826, 14519.070
1219.308, 14557.660
1219.790, 14501.530
1220.272, 14446.420
1220.754, 14421.280
1221.236, 14425.340
1221.718, 14461.100
1222.200, 14503.530
1222.682, 14517.460
1223.165, 14511.120
1223.647, 14491.420
1224.129, 14468.100
1224.611, 14468.150
1225.093, 14477.380
1225.575, 14444.400
1226.057, 14370.580
1226.539, 14342.200
1227.021, 14419.600
1227.504, 14468.240
1227.986, 14425.280
1228.468, 14370.190
1228.950, 14312.960
1229.432, 14277.730
1229.914, 14290.360
1230.396, 14322.900
1230.878, 14337.790
1231.361, 14334.330
1231.843, 14299.670
1232.325, 14231.480
1232.807, 14198.010
1233.289, 14200.970
1233.771, 14208.780
1234.253, 14214.400
1234.735, 14230.530
1235.218, 14264.260
1235.700, 14294.430
1236.182, 14305.100
1236.664, 14295.230
1237.146, 14241.060
1237.628, 14186.020
1238.110, 14188.450
1238.592, 14216.570
1239.074, 14211.570
1239.557, 14179.510
1240.039, 14177.880
1240.521, 14226.800
1241.003, 14260.320
1241.485, 14279.700
1241.967, 14271.600
1242.449, 14218.620
1242.931, 14180.760
1243.413, 14187.920
1243.896, 14203.570
1244.378, 14191.360
1244.860, 14166.020
1245.342, 14156.270
1245.824, 14161.620
1246.306, 14194.450
1246.788, 14236.780
1247.270, 14230.660
1247.753, 14184.500
1248.235, 14150.990
1248.717, 14143.850
1249.199, 14128.600
1249.681, 14074.650
1250.163, 14041.140
1250.645, 14080.330
1251.127, 14113.360
1251.609, 14088.260
1252.092, 14055.090
1252.574, 14062.100
1253.056, 14080.500
1253.538, 14058.360
1254.020, 14004.270
1254.502, 13996.830
1254.984, 14039.940
1255.466, 14039.750
1255.948, 13995.230
1256.431, 13991.910
1256.913, 14043.980
1257.395, 14087.380
1257.877, 14089.200
1258.359, 14071.390
1258.841, 14044.490
1259.323, 14021.590
1259.805, 14023.510
1260.288, 14027.400
1260.770, 14002.980
1261.252, 13972.000
1261.734, 13967.750
1262.216, 13984.100
1262.698, 13989.590
1263.180, 13978.810
1263.662, 13979.280
1264.145, 13999.560
1264.627, 14001.750
1265.109, 13975.100
1265.591, 13970.630
1266.073, 14007.580
1266.555, 14049.670
1267.037, 14070.910
1267.519, 14074.220
1268.001, 14059.670
1268.484, 14032.120
##END=



