##NAMES=Polydymite
##RRUFFID=R050609
##IDEAL CHEMISTRY=Ni^2+^Ni^3+^_2_S^2-^_4_
##LOCALITY=Dry Nickel mine, Bindura, South Rhodesia, Rhodesia
##OWNER=RRUFF
##SOURCE=University of Arizona Mineral Museum
##DESCRIPTION=Reddish-bronze tarnished metallic fragment associated with green clinochlore and white actinolite
##STATUS=The identification of this mineral has been confirmed by X-ray diffraction.
##URL=rruff.info/R050609
##MEASURED CHEMISTRY=(Ni_0.85_Fe_0.15_)Ni_2.00_S_4.00_
157.247, 3027.000
158.630, 2995.000
160.013, 3011.000
161.396, 3089.000
162.779, 3063.819
164.161, 3078.105
165.544, 3085.000
166.926, 3054.000
168.308, 3070.000
169.689, 3057.000
171.070, 3009.000
172.452, 3030.000
173.833, 3005.000
175.213, 2980.000
176.594, 2977.000
177.974, 3014.000
179.354, 2968.000
180.734, 3000.000
182.114, 2953.000
183.493, 2973.000
184.872, 3010.000
186.251, 3014.000
187.630, 3011.000
189.008, 3035.069
190.387, 3051.556
191.765, 3062.000
193.143, 3106.000
194.520, 3124.000
195.898, 3153.000
197.275, 3212.000
198.652, 3214.000
200.029, 3262.000
201.405, 3200.000
202.782, 3240.000
204.158, 3233.000
205.534, 3283.000
206.909, 3371.000
208.285, 3401.000
209.660, 3243.000
211.035, 3023.000
212.410, 2796.000
213.784, 2770.000
215.159, 2675.000
216.533, 2727.000
217.907, 2764.000
219.281, 2774.000
220.654, 2871.000
222.027, 2898.000
223.400, 2931.000
224.773, 2950.000
226.146, 2876.000
227.518, 2855.000
228.891, 2827.000
230.263, 2767.000
231.634, 2719.000
233.006, 2767.000
234.377, 2726.000
235.748, 2643.000
237.119, 2701.000
238.490, 2650.265
239.860, 2695.000
241.231, 2611.000
242.601, 2643.000
243.970, 2579.000
245.340, 2670.000
246.709, 2650.000
248.079, 2586.000
249.448, 2608.000
250.816, 2609.000
252.185, 2642.000
253.553, 2610.000
254.921, 2647.000
256.289, 2630.541
257.657, 2629.022
259.024, 2607.000
260.391, 2628.000
261.758, 2614.000
263.125, 2624.000
264.492, 2650.000
265.858, 2660.000
267.224, 2648.000
268.590, 2679.000
269.956, 2630.000
271.321, 2703.000
272.687, 2743.000
274.052, 2676.000
275.416, 2709.000
276.781, 2770.000
278.146, 2832.000
279.510, 2824.000
280.874, 2942.000
282.237, 3009.000
283.601, 3186.718
284.964, 3473.000
286.327, 3513.000
287.690, 3706.000
289.053, 3674.000
290.416, 3609.000
291.778, 3527.000
293.140, 3368.000
294.502, 3191.000
295.863, 3080.000
297.225, 3013.000
298.586, 2873.000
299.947, 2886.000
301.308, 2809.000
302.668, 2803.000
304.029, 2734.000
305.389, 2701.000
306.749, 2705.000
308.108, 2691.000
309.468, 2669.580
310.827, 2646.000
312.186, 2629.000
313.545, 2657.000
314.903, 2635.000
316.262, 2642.000
317.620, 2610.000
318.978, 2612.774
320.336, 2642.000
321.693, 2612.000
323.051, 2624.000
324.408, 2634.000
325.765, 2746.000
327.121, 2718.000
328.478, 2652.000
329.834, 2566.000
331.190, 2662.000
332.546, 2692.000
333.902, 2706.000
335.257, 2729.000
336.612, 2735.000
337.967, 2745.550
339.322, 2732.000
340.677, 2751.000
342.031, 2756.000
343.385, 2746.000
344.739, 2753.000
346.093, 2711.000
347.446, 2684.000
348.799, 2706.000
350.153, 2704.000
351.505, 2708.000
352.858, 2698.449
354.210, 2696.485
355.563, 2676.000
356.915, 2678.000
358.267, 2690.000
359.618, 2667.225
360.969, 2691.266
362.321, 2693.431
363.672, 2729.000
365.022, 2721.000
366.373, 2750.000
367.723, 2777.000
369.073, 2725.000
370.423, 2736.000
371.773, 2801.000
373.122, 2749.000
374.471, 2792.000
375.821, 2859.000
377.169, 2839.000
378.518, 2941.000
379.866, 2970.000
381.215, 2958.000
382.563, 3002.000
383.910, 2964.000
385.258, 2870.000
386.605, 2856.000
387.952, 2804.000
389.299, 2794.000
390.646, 2734.000
391.992, 2713.000
393.339, 2640.000
394.685, 2703.000
396.031, 2646.000
397.376, 2696.000
398.722, 2653.000
400.067, 2660.000
401.412, 2606.000
402.757, 2634.000
404.101, 2641.000
405.446, 2648.000
406.790, 2606.000
408.134, 2632.000
409.478, 2590.000
410.821, 2659.000
412.165, 2676.000
413.508, 2602.000
414.851, 2639.000
416.193, 2606.000
417.536, 2610.000
418.878, 2612.000
420.220, 2693.000
421.562, 2680.000
422.904, 2644.000
424.245, 2649.000
425.586, 2619.000
426.927, 2622.580
428.268, 2627.791
429.609, 2642.000
430.949, 2650.000
432.289, 2684.000
433.629, 2700.000
434.969, 2637.000
436.309, 2674.000
437.648, 2620.000
438.987, 2678.000
440.326, 2661.000
441.665, 2624.000
443.003, 2639.000
444.342, 2697.000
445.680, 2645.000
447.018, 2703.000
448.355, 2657.000
449.693, 2702.000
451.030, 2721.000
452.367, 2690.162
453.704, 2698.000
455.041, 2663.000
456.377, 2682.000
457.713, 2698.000
459.049, 2696.000
460.385, 2673.000
461.721, 2670.000
463.056, 2684.000
464.391, 2736.000
465.726, 2735.000
467.061, 2698.000
468.395, 2749.000
469.730, 2710.000
471.064, 2797.000
472.398, 2721.000
473.731, 2780.000
475.065, 2770.000
476.398, 2792.000
477.731, 2794.000
479.064, 2790.000
480.397, 2788.000
481.729, 2753.000
483.062, 2750.000
484.394, 2739.000
485.725, 2773.000
487.057, 2737.000
488.389, 2736.000
489.720, 2709.000
491.051, 2721.000
492.382, 2726.000
493.712, 2700.313
495.043, 2731.775
496.373, 2749.364
497.703, 2753.826
499.032, 2705.847
500.362, 2725.585
501.691, 2718.186
503.020, 2709.673
504.349, 2724.000
505.678, 2738.000
507.007, 2725.000
508.335, 2761.000
509.663, 2730.000
510.991, 2754.000
512.319, 2712.000
513.646, 2752.000
514.973, 2752.000
516.300, 2726.000
517.627, 2738.000
518.954, 2722.000
520.280, 2706.000
521.607, 2711.000
522.933, 2688.000
524.259, 2756.000
525.584, 2743.000
526.910, 2692.000
528.235, 2737.000
529.560, 2708.000
530.885, 2764.000
532.209, 2725.000
533.534, 2688.000
534.858, 2750.000
536.182, 2734.000
537.506, 2710.000
538.829, 2759.000
540.152, 2737.000
541.476, 2742.000
542.799, 2769.000
544.121, 2726.000
545.444, 2745.000
546.766, 2706.000
548.088, 2736.000
549.410, 2734.000
550.732, 2739.000
552.053, 2744.000
553.375, 2771.000
554.696, 2773.700
556.017, 2784.520
557.337, 2783.000
558.658, 2789.000
559.978, 2768.000
561.298, 2747.000
562.618, 2775.000
563.938, 2757.987
565.257, 2720.000
566.576, 2754.000
567.895, 2785.000
569.214, 2770.000
570.533, 2838.000
571.851, 2741.000
573.170, 2779.000
574.488, 2796.000
575.805, 2784.000
577.123, 2814.847
578.440, 2750.000
579.758, 2826.000
581.075, 2796.000
582.391, 2758.000
583.708, 2792.000
585.024, 2688.000
586.341, 2728.000
587.657, 2729.000
588.972, 2768.000
590.288, 2787.000
591.603, 2801.000
592.918, 2793.953
594.233, 2742.000
595.548, 2767.000
596.863, 2753.000
598.177, 2763.000
599.491, 2752.000
600.805, 2777.000
602.119, 2767.834
603.432, 2737.000
604.746, 2747.000
606.059, 2778.000
607.372, 2737.000
608.685, 2700.000
609.997, 2742.000
611.309, 2727.000
612.621, 2715.000
613.933, 2763.000
615.245, 2740.000
616.557, 2779.000
617.868, 2699.000
619.179, 2797.000
620.490, 2772.000
621.801, 2808.000
623.111, 2816.000
624.421, 2741.000
625.731, 2796.000
627.041, 2816.000
628.351, 2833.000
629.660, 2737.000
630.970, 2770.000
632.279, 2847.000
633.588, 2764.000
634.896, 2820.000
636.205, 2757.000
637.513, 2778.000
638.821, 2787.000
640.129, 2742.000
641.437, 2761.000
642.744, 2755.174
644.051, 2767.000
645.358, 2777.000
646.665, 2817.000
647.972, 2857.000
649.278, 2810.000
650.584, 2850.000
651.890, 2818.000
653.196, 2820.000
654.502, 2776.000
655.807, 2816.000
657.113, 2801.000
658.418, 2825.000
659.722, 2871.000
661.027, 2836.000
662.331, 2859.000
663.636, 2794.000
664.940, 2853.000
666.244, 2834.000
667.547, 2870.000
668.851, 2850.000
670.154, 2846.000
671.457, 2820.000
672.760, 2834.000
674.062, 2847.000
675.365, 2803.000
676.667, 2840.000
677.969, 2822.000
679.271, 2860.000
680.572, 2851.000
681.874, 2839.000
683.175, 2844.000
684.476, 2862.000
685.777, 2850.000
687.077, 2864.000
688.378, 2853.951
689.678, 2906.000
690.978, 2832.000
692.278, 2850.000
693.577, 2838.000
694.877, 2883.000
696.176, 2865.000
697.475, 2899.000
698.774, 2822.000
700.072, 2923.000
701.371, 2841.000
702.669, 2914.000
703.967, 2840.000
705.265, 2840.000
706.562, 2883.000
707.860, 2834.000
709.157, 2839.000
710.454, 2881.000
711.751, 2880.000
713.047, 2900.000
714.344, 2840.000
715.640, 2887.000
716.936, 2881.000
718.232, 2875.000
719.527, 2924.000
720.823, 2865.000
722.118, 2862.000
723.413, 2864.000
724.708, 2857.000
726.002, 2851.000
727.297, 2865.000
728.591, 2862.449
729.885, 2860.000
731.179, 2863.000
732.472, 2864.000
733.766, 2861.177
735.059, 2861.794
736.352, 2857.000
737.645, 2871.000
738.937, 2872.000
740.230, 2903.000
741.522, 2876.000
742.814, 2891.000
744.106, 2882.000
745.397, 2904.000
746.689, 2900.000
747.980, 2926.000
749.271, 2899.000
750.562, 2934.000
751.853, 2948.000
753.143, 2931.000
754.433, 2956.000
755.723, 2912.000
757.013, 2910.540
758.303, 2917.689
759.592, 2871.000
760.881, 2931.000
762.170, 2903.000
763.459, 2908.000
764.748, 2926.000
766.036, 2891.000
767.325, 2976.000
768.613, 2895.000
769.901, 2939.000
771.188, 2972.000
772.476, 2891.000
773.763, 2954.000
775.050, 2866.000
776.337, 2948.000
777.624, 2937.422
778.910, 2940.000
780.196, 2942.000
781.482, 2947.000
782.768, 2908.000
784.054, 2900.000
785.339, 2948.000
786.625, 2952.000
787.910, 2883.000
789.195, 2931.000
790.479, 2923.000
791.764, 2915.000
793.048, 2967.000
794.332, 2921.000
795.616, 2996.000
796.900, 2927.000
798.183, 2972.000
799.467, 2938.000
800.750, 2987.000
802.033, 2945.000
803.316, 2960.000
804.598, 2980.000
805.880, 2914.000
807.163, 2970.000
808.445, 2975.000
809.726, 2974.000
811.008, 2967.000
812.289, 2977.000
813.570, 2952.000
814.851, 2977.000
816.132, 2947.000
817.413, 2936.000
818.693, 2961.000
819.973, 2962.115
821.253, 2968.000
822.533, 2990.000
823.813, 2987.000
825.092, 2963.000
826.371, 3022.000
827.650, 2999.000
828.929, 2988.000
830.208, 3013.000
831.486, 3014.000
832.764, 2986.000
834.042, 2961.000
835.320, 3046.000
836.598, 3035.000
837.875, 3013.000
839.152, 3022.000
840.429, 3015.000
841.706, 3025.000
842.983, 3023.809
844.259, 3004.000
845.536, 3030.000
846.812, 3028.000
848.088, 3042.000
849.363, 3048.528
850.639, 3061.000
851.914, 3063.714
853.189, 3077.998
854.464, 3101.000
855.739, 3086.000
857.013, 3092.000
858.288, 3031.000
859.562, 3056.000
860.836, 3059.000
862.110, 3131.000
863.383, 3088.000
864.656, 3147.000
865.930, 3090.000
867.203, 3136.000
868.475, 3096.000
869.748, 3105.000
871.020, 3082.000
872.292, 3133.000
873.564, 3134.000
874.836, 3118.000
876.108, 3100.000
877.379, 3094.000
878.650, 3099.611
879.922, 3098.796
881.192, 3123.000
882.463, 3126.000
883.733, 3134.000
885.004, 3171.000
886.274, 3140.000
887.544, 3156.000
888.813, 3168.000
890.083, 3137.000
891.352, 3168.838
892.621, 3198.000
893.890, 3203.000
895.159, 3161.000
896.427, 3173.000
897.695, 3165.670
898.964, 3165.916
900.232, 3175.000
901.499, 3191.000
902.767, 3211.000
904.034, 3237.000
905.301, 3232.711
906.568, 3166.000
907.835, 3222.000
909.102, 3206.000
910.368, 3193.000
911.634, 3228.000
912.900, 3270.000
914.166, 3239.000
915.432, 3262.000
916.697, 3256.000
917.962, 3203.000
919.227, 3277.000
920.492, 3247.000
921.757, 3241.000
923.021, 3286.000
924.285, 3283.000
925.550, 3252.000
926.813, 3222.000
928.077, 3238.000
929.341, 3292.000
930.604, 3294.000
931.867, 3297.000
933.130, 3256.000
934.393, 3308.000
935.655, 3334.000
936.918, 3250.000
938.180, 3274.000
939.442, 3303.000
940.703, 3331.000
941.965, 3367.000
943.226, 3333.000
944.488, 3322.000
945.749, 3260.000
947.009, 3338.000
948.270, 3363.000
949.530, 3290.000
950.791, 3379.000
952.051, 3332.000
953.311, 3387.000
954.570, 3328.000
955.830, 3403.000
957.089, 3348.000
958.348, 3416.000
959.607, 3340.000
960.866, 3382.000
962.124, 3419.000
963.383, 3383.000
964.641, 3400.000
965.899, 3362.000
967.156, 3370.347
968.414, 3366.000
969.671, 3386.000
970.928, 3393.000
972.185, 3415.000
973.442, 3434.000
974.699, 3420.000
975.955, 3420.000
977.211, 3457.000
978.468, 3456.000
979.723, 3423.000
980.979, 3459.000
982.234, 3417.000
983.490, 3520.000
984.745, 3478.000
986.000, 3497.000
987.254, 3454.000
988.509, 3450.000
989.763, 3515.000
991.017, 3517.000
992.271, 3500.000
993.525, 3499.000
994.779, 3500.000
996.032, 3504.343
997.285, 3529.000
998.538, 3535.000
999.791, 3576.000
1001.044, 3612.000
1002.296, 3539.000
1003.548, 3556.000
1004.800, 3580.000
1006.052, 3537.000
1007.304, 3599.000
1008.555, 3606.285
1009.807, 3592.563
1011.058, 3664.000
1012.309, 3561.000
1013.559, 3573.000
1014.810, 3528.000
1016.060, 3551.000
1017.310, 3553.000
1018.560, 3587.000
1019.810, 3561.000
1021.060, 3607.000
1022.309, 3614.000
1023.558, 3540.000
1024.807, 3533.000
1026.056, 3578.000
1027.305, 3576.000
1028.553, 3532.000
1029.801, 3582.000
1031.049, 3663.000
1032.297, 3561.000
1033.545, 3572.000
1034.793, 3622.000
1036.040, 3556.000
1037.287, 3558.000
1038.534, 3619.000
1039.781, 3636.000
1041.027, 3598.000
1042.274, 3550.000
1043.520, 3626.000
1044.766, 3639.000
1046.012, 3585.000
1047.257, 3588.000
1048.503, 3590.680
1049.748, 3595.632
1050.993, 3605.000
1052.238, 3638.000
1053.483, 3641.000
1054.727, 3648.000
1055.971, 3605.000
1057.216, 3607.000
1058.459, 3622.000
1059.703, 3657.000
1060.947, 3617.000
1062.190, 3649.000
1063.433, 3645.000
1064.676, 3651.000
1065.919, 3650.000
1067.162, 3673.000
1068.404, 3622.000
1069.646, 3655.000
1070.888, 3651.000
1072.130, 3678.000
1073.372, 3671.000
1074.613, 3630.000
1075.855, 3648.000
1077.096, 3666.000
1078.337, 3636.000
1079.578, 3693.000
1080.818, 3646.000
1082.059, 3682.000
1083.299, 3639.000
1084.539, 3631.000
1085.779, 3639.089
1087.018, 3594.813
1088.258, 3602.490
1089.497, 3540.000
1090.736, 3603.000
1091.975, 3600.000
1093.213, 3629.000
1094.452, 3702.000
1095.690, 3617.000
1096.928, 3589.000
1098.166, 3610.476
1099.404, 3571.709
1100.642, 3649.000
1101.879, 3566.000
1103.116, 3646.000
1104.353, 3650.000
1105.590, 3610.000
1106.827, 3589.000
1108.063, 3609.000
1109.299, 3606.000
1110.536, 3638.000
1111.771, 3584.000
1113.007, 3606.000
1114.243, 3688.000
1115.478, 3659.000
1116.713, 3639.000
1117.948, 3592.538
1119.183, 3650.348
1120.418, 3682.847
1121.652, 3691.395
1122.886, 3604.256
1124.120, 3640.677
1125.354, 3627.581
1126.588, 3612.454
1127.821, 3666.265
1129.055, 3593.044
1130.288, 3645.761
1131.521, 3648.207
1132.753, 3673.661
1133.986, 3649.292
1135.218, 3640.311
1136.450, 3681.170
1137.682, 3694.432
1138.914, 3664.328
1140.146, 3691.244
1141.377, 3616.282
1142.609, 3630.720
1143.840, 3683.730
1145.071, 3656.130
1146.301, 3683.958
1147.532, 3690.676
1148.762, 3601.460
1149.992, 3679.082
1151.222, 3684.552
1152.452, 3615.938
1153.682, 3687.844
1154.911, 3629.443
1156.140, 3617.554
1157.369, 3640.667
1158.598, 3627.292
1159.827, 3671.446
1161.055, 3660.177
1162.284, 3643.957
1163.512, 3649.346
1164.740, 3593.501
1165.967, 3651.259
1167.195, 3631.416
1168.422, 3650.146
1169.650, 3677.620
1170.877, 3638.147
1172.103, 3669.549
1173.330, 3591.041
1174.557, 3604.499
1175.783, 3608.054
1177.009, 3639.000
1178.235, 3593.000
1179.461, 3628.000
1180.686, 3668.000
1181.912, 3638.000
1183.137, 3620.000
1184.362, 3614.000
1185.587, 3621.000
1186.811, 3652.000
1188.036, 3626.000
1189.260, 3596.000
1190.484, 3589.000
1191.708, 3645.000
1192.932, 3716.000
1194.155, 3649.000
1195.378, 3643.000
1196.602, 3634.000
1197.825, 3684.000
1199.047, 3657.000
1200.270, 3671.000
1201.492, 3639.000
1202.715, 3677.000
1203.937, 3671.000
1205.159, 3672.000
1206.380, 3639.000
1207.602, 3703.000
1208.823, 3669.000
1210.044, 3652.000
1211.265, 3714.000
1212.486, 3705.000
1213.707, 3685.000
1214.927, 3699.000
1216.147, 3646.000
1217.367, 3691.000
1218.587, 3728.000
1219.807, 3679.000
1221.027, 3658.000
1222.246, 3729.000
1223.465, 3691.000
1224.684, 3738.000
1225.903, 3750.000
1227.121, 3703.000
1228.340, 3687.000
1229.558, 3690.414
1230.776, 3718.000
1231.994, 3713.000
1233.212, 3705.000
1234.429, 3757.000
1235.646, 3671.000
1236.864, 3701.000
1238.081, 3818.000
1239.297, 3705.000
1240.514, 3773.000
1241.730, 3776.000
1242.947, 3805.000
1244.163, 3773.000
1245.378, 3758.000
1246.594, 3762.000
1247.810, 3747.242
1249.025, 3783.000
1250.240, 3759.000
1251.455, 3748.000
1252.670, 3787.000
1253.885, 3788.000
1255.099, 3759.000
1256.313, 3813.000
1257.527, 3805.000
1258.741, 3778.000
1259.955, 3797.000
1261.168, 3779.999
1262.382, 3799.346
1263.595, 3780.000
1264.808, 3815.000
1266.021, 3840.000
1267.233, 3790.000
1268.446, 3830.000
1269.658, 3794.000
1270.870, 3771.000
1272.082, 3814.000
1273.294, 3815.000
1274.505, 3813.000
1275.716, 3788.000
1276.928, 3797.000
1278.139, 3799.000
1279.349, 3810.000
1280.560, 3784.000
1281.770, 3868.000
1282.981, 3798.000
1284.191, 3862.000
1285.401, 3836.000
1286.610, 3831.000
1287.820, 3802.000
1289.029, 3857.000
1290.239, 3795.000
1291.448, 3899.000
1292.656, 3812.000
1293.865, 3777.000
1295.073, 3891.000
1296.282, 3852.000
1297.490, 3877.000
1298.698, 3911.752
1299.906, 3886.956
1301.113, 3930.000
1302.320, 3883.000
1303.528, 3854.000
1304.735, 3868.000
1305.942, 3895.000
1307.148, 3874.000
1308.355, 3878.000
1309.561, 3819.000
1310.767, 3892.000
1311.973, 3924.000
1313.179, 3902.000
1314.384, 3842.000
1315.590, 3904.000
1316.795, 3873.000
1318.000, 3886.000
1319.205, 3890.000
1320.410, 3886.940
1321.614, 3914.000
1322.819, 3920.000
1324.023, 3934.697
1325.227, 3996.000
1326.431, 3969.000
1327.634, 3879.000
1328.838, 3935.000
1330.041, 3948.000
1331.244, 3912.000
1332.447, 3949.000
1333.650, 3951.000
1334.852, 3975.000
1336.055, 4028.000
1337.257, 3990.000
1338.459, 4015.000
1339.661, 3971.000
1340.862, 3944.000
1342.064, 3975.000
1343.265, 3970.000
1344.466, 3959.000
1345.667, 4015.000
1346.868, 4002.000
1348.068, 3986.000
1349.269, 3995.000
1350.469, 3979.000
1351.669, 4006.000
1352.869, 4005.000
1354.069, 4058.000
1355.268, 4061.000
1356.468, 4046.000
1357.667, 4016.000
1358.866, 4027.000
1360.065, 4037.000
1361.263, 4012.000
1362.462, 4085.000
1363.660, 4018.000
1364.858, 4017.000
1366.056, 4059.000
1367.254, 4076.000
1368.451, 4012.000
1369.649, 4063.000
1370.846, 4067.000
1372.043, 4096.000
1373.240, 4121.000
1374.436, 4107.000
1375.633, 4099.000
1376.829, 4132.000
1378.025, 4124.000
1379.221, 4100.000
1380.417, 4090.000
1381.613, 4147.000
1382.808, 4157.000
1384.003, 4123.000
1385.199, 4152.000
1386.393, 4118.000
1387.588, 4121.000
1388.783, 4182.000
1389.977, 4150.000
1391.171, 4162.000
1392.365, 4180.000
1393.559, 4160.000
1394.753, 4166.000
1395.946, 4160.000
1397.140, 4190.000
1398.333, 4144.000
1399.526, 4158.000
1400.719, 4130.000
1401.911, 4183.000
1403.104, 4199.000
1404.296, 4185.000
1405.488, 4137.000
1406.680, 4216.000
1407.872, 4169.000
1409.063, 4160.000
1410.255, 4158.000
1411.446, 4257.000
1412.637, 4233.254
1413.828, 4241.304
1415.018, 4257.000
1416.209, 4221.000
1417.399, 4223.000
1418.589, 4236.000
1419.779, 4226.073
1420.969, 4241.208
1422.159, 4224.000
1423.348, 4255.000
1424.537, 4229.000
1425.726, 4217.000
1426.915, 4223.000
1428.104, 4267.000
1429.293, 4233.000
1430.481, 4269.000
1431.669, 4309.000
1432.857, 4212.000
1434.045, 4279.000
1435.233, 4236.000
1436.420, 4326.000
1437.608, 4299.000
1438.795, 4293.000
1439.982, 4227.000
1441.169, 4263.000
1442.355, 4299.000
1443.542, 4328.000
1444.728, 4310.000
1445.914, 4309.000
1447.100, 4307.000
1448.286, 4356.000
1449.472, 4265.000
1450.657, 4309.000
1451.842, 4360.000
1453.027, 4329.000
1454.212, 4385.000
1455.397, 4350.000
1456.581, 4350.000
1457.766, 4376.000
1458.950, 4323.000
1460.134, 4345.000
1461.318, 4381.000
1462.501, 4356.000
1463.685, 4327.000
1464.868, 4413.000
1466.051, 4279.000
1467.234, 4432.000
1468.417, 4369.000
1469.600, 4407.000
1470.782, 4388.000
1471.965, 4415.120
1473.147, 4404.007
1474.329, 4396.064
1475.510, 4382.000
1476.692, 4388.000
1477.873, 4383.000
1479.055, 4410.000
1480.236, 4396.000
1481.416, 4416.000
1482.597, 4485.000
1483.778, 4417.000
1484.958, 4442.000
1486.138, 4433.000
1487.318, 4397.000
1488.498, 4504.000
1489.678, 4480.000
1490.857, 4408.000
1492.037, 4481.000
1493.216, 4473.000
1494.395, 4448.000
1495.574, 4441.000
1496.752, 4478.000
1497.931, 4456.000
1499.109, 4555.000
1500.287, 4442.000
1501.465, 4508.000
1502.643, 4481.000
##END=



