##NAMES=Sincosite
##RRUFFID=R060523
##IDEAL CHEMISTRY=Ca(V^4+^O)_2_(P^5+^O_4_)_2_&#183;4H_2_O
##LOCALITY=Ross Hannibal mine, Lawrence County, South Dakota, USA
##OWNER=RRUFF
##SOURCE=Michael Scott
##DESCRIPTION=Green thin tabular square to rectangular crystals. Crystals twinned by a 2-fold around [1 -1 0].
##STATUS=The identification of this mineral has been made only by X-ray diffraction.
##URL=rruff.info/R060523
151.895, 8205.592
152.377, 8195.448
152.859, 8191.226
153.342, 8200.446
153.824, 8210.482
154.306, 8221.362
154.788, 8235.772
155.270, 8240.656
155.752, 8221.640
156.234, 8195.993
156.716, 8186.308
157.198, 8208.941
157.680, 8238.981
158.163, 8265.950
158.645, 8284.102
159.127, 8310.907
159.609, 8358.811
160.091, 8418.020
160.573, 8469.492
161.055, 8495.479
161.538, 8517.992
162.020, 8549.619
162.502, 8598.241
162.984, 8645.821
163.466, 8680.124
163.948, 8705.655
164.430, 8738.038
164.912, 8790.198
165.394, 8848.918
165.876, 8903.023
166.359, 8944.257
166.841, 8985.952
167.323, 9038.797
167.805, 9101.114
168.287, 9160.773
168.769, 9200.401
169.251, 9236.232
169.733, 9287.415
170.216, 9377.834
170.698, 9475.247
171.180, 9550.500
171.662, 9604.477
172.144, 9661.118
172.626, 9747.724
173.108, 9848.366
173.590, 9937.440
174.072, 9988.425
174.555, 10029.560
175.037, 10093.570
175.519, 10182.600
176.001, 10282.630
176.483, 10382.390
176.965, 10482.970
177.447, 10584.760
177.929, 10703.050
178.412, 10818.560
178.894, 10901.300
179.376, 10947.550
179.858, 10963.640
180.340, 10949.360
180.822, 10907.730
181.304, 10852.790
181.786, 10796.360
182.268, 10732.400
182.751, 10641.200
183.233, 10512.400
183.715, 10375.740
184.197, 10285.360
184.679, 10236.100
185.161, 10184.220
185.643, 10097.200
186.125, 9983.049
186.607, 9860.713
187.090, 9725.414
187.572, 9595.638
188.054, 9508.636
188.536, 9465.255
189.018, 9438.069
189.500, 9407.629
189.982, 9375.690
190.464, 9350.257
190.947, 9331.177
191.429, 9321.136
191.911, 9332.414
192.393, 9367.032
192.875, 9405.361
193.357, 9429.425
193.839, 9439.604
194.321, 9450.842
194.803, 9463.176
195.286, 9479.864
195.768, 9518.540
196.250, 9582.949
196.732, 9653.391
197.214, 9708.184
197.696, 9746.099
198.178, 9790.262
198.661, 9850.014
199.143, 9923.181
199.625, 9990.510
200.107, 10051.960
200.589, 10109.890
201.071, 10169.370
201.553, 10232.120
202.035, 10286.090
202.517, 10326.860
202.999, 10354.430
203.482, 10376.570
203.964, 10391.510
204.446, 10403.360
204.928, 10420.370
205.410, 10445.420
205.892, 10461.590
206.374, 10463.200
206.857, 10449.990
207.339, 10420.970
207.821, 10371.720
208.303, 10311.670
208.785, 10255.670
209.267, 10203.360
209.749, 10156.100
210.231, 10117.540
210.713, 10091.250
211.195, 10054.070
211.678, 10002.680
212.160, 9943.801
212.642, 9888.845
213.124, 9832.526
213.606, 9793.252
214.088, 9781.120
214.570, 9783.955
215.052, 9783.156
215.535, 9778.919
216.017, 9760.948
216.499, 9760.713
216.981, 9753.370
217.463, 9745.735
217.945, 9744.082
218.427, 9745.971
218.909, 9767.831
219.391, 9816.201
219.874, 9881.115
220.356, 9931.408
220.838, 9961.319
221.320, 9985.388
221.802, 10009.880
222.284, 10032.560
222.766, 10061.790
223.248, 10097.510
223.731, 10140.520
224.213, 10193.940
224.695, 10267.110
225.177, 10337.970
225.659, 10395.200
226.141, 10437.340
226.623, 10467.900
227.105, 10481.420
227.587, 10482.830
228.070, 10496.450
228.552, 10524.210
229.034, 10561.010
229.516, 10604.640
229.998, 10659.760
230.480, 10710.820
230.962, 10756.370
231.444, 10796.310
231.926, 10830.770
232.409, 10852.960
232.891, 10877.590
233.373, 10918.230
233.855, 10993.610
234.337, 11045.410
234.819, 11060.190
235.301, 11043.350
235.783, 11039.690
236.266, 11053.900
236.748, 11075.910
237.230, 11099.310
237.712, 11126.030
238.194, 11151.220
238.676, 11173.600
239.158, 11193.690
239.640, 11213.130
240.122, 11222.140
240.605, 11242.190
241.087, 11291.360
241.569, 11386.410
242.051, 11479.250
242.533, 11558.610
243.015, 11626.970
243.497, 11714.620
243.980, 11827.770
244.462, 11952.940
244.944, 12077.650
245.426, 12190.010
245.908, 12325.570
246.390, 12496.920
246.872, 12699.510
247.354, 12890.290
247.836, 13055.420
248.318, 13221.200
248.801, 13411.480
249.283, 13645.310
249.765, 13862.460
250.247, 14050.300
250.729, 14209.330
251.211, 14376.900
251.693, 14564.390
252.176, 14744.780
252.658, 14896.280
253.140, 15017.570
253.622, 15115.330
254.104, 15189.440
254.586, 15240.710
255.068, 15282.800
255.550, 15318.370
256.032, 15341.870
256.514, 15351.410
256.997, 15355.640
257.479, 15324.090
257.961, 15243.080
258.443, 15115.470
258.925, 14998.160
259.407, 14898.640
259.889, 14794.390
260.371, 14664.590
260.854, 14501.220
261.336, 14330.270
261.818, 14152.850
262.300, 13969.500
262.782, 13777.800
263.264, 13569.920
263.746, 13366.910
264.228, 13192.470
264.711, 13055.740
265.193, 12912.230
265.675, 12747.420
266.157, 12568.000
266.639, 12411.610
267.121, 12281.420
267.603, 12174.180
268.085, 12089.140
268.567, 12030.460
269.050, 11981.610
269.532, 11942.540
270.014, 11912.110
270.496, 11884.030
270.978, 11861.260
271.460, 11835.620
271.942, 11793.250
272.424, 11726.240
272.906, 11691.350
273.389, 11709.100
273.871, 11763.210
274.353, 11775.310
274.835, 11732.650
275.317, 11689.360
275.799, 11691.670
276.281, 11746.380
276.763, 11786.070
277.246, 11796.510
277.728, 11787.380
278.210, 11792.440
278.692, 11814.370
279.174, 11838.910
279.656, 11859.960
280.138, 11877.800
280.620, 11878.210
281.103, 11854.420
281.585, 11815.860
282.067, 11794.360
282.549, 11794.090
283.031, 11778.830
283.513, 11709.560
283.995, 11589.960
284.477, 11502.010
284.959, 11464.600
285.441, 11451.980
285.924, 11409.710
286.406, 11337.170
286.888, 11250.760
287.370, 11152.910
287.852, 11046.890
288.334, 10959.750
288.816, 10896.930
289.298, 10849.490
289.781, 10798.080
290.263, 10743.320
290.745, 10699.870
291.227, 10686.610
291.709, 10694.330
292.191, 10687.040
292.673, 10660.600
293.155, 10620.650
293.638, 10563.870
294.120, 10494.730
294.602, 10443.210
295.084, 10437.750
295.566, 10462.880
296.048, 10481.140
296.530, 10491.930
297.012, 10488.880
297.494, 10454.250
297.977, 10395.470
298.459, 10343.400
298.941, 10318.550
299.423, 10309.890
299.905, 10297.090
300.387, 10277.810
300.869, 10262.420
301.351, 10267.590
301.833, 10285.630
302.316, 10295.770
302.798, 10275.810
303.280, 10247.280
303.762, 10240.900
304.244, 10258.980
304.726, 10277.780
305.208, 10270.310
305.690, 10249.040
306.173, 10237.040
306.655, 10259.320
307.137, 10286.070
307.619, 10286.870
308.101, 10261.400
308.583, 10231.070
309.065, 10206.650
309.547, 10187.950
310.030, 10175.090
310.512, 10177.690
310.994, 10179.370
311.476, 10168.320
311.958, 10145.400
312.440, 10119.470
312.922, 10097.620
313.404, 10074.110
313.886, 10042.740
314.369, 9986.882
314.851, 9936.776
315.333, 9910.705
315.815, 9905.310
316.297, 9903.380
316.779, 9913.258
317.261, 9915.212
317.743, 9893.389
318.225, 9820.824
318.708, 9752.900
319.190, 9710.923
319.672, 9689.175
320.154, 9669.148
320.636, 9643.702
321.118, 9619.953
321.600, 9596.552
322.082, 9571.022
322.565, 9588.691
323.047, 9595.873
323.529, 9593.133
324.011, 9550.752
324.493, 9559.560
324.975, 9547.853
325.457, 9535.305
325.939, 9551.316
326.422, 9533.739
326.904, 9551.668
327.386, 9588.610
327.868, 9601.273
328.350, 9556.966
328.832, 9520.940
329.314, 9515.659
329.796, 9556.412
330.278, 9572.832
330.760, 9541.872
331.243, 9498.950
331.725, 9489.884
332.207, 9543.190
332.689, 9587.233
333.171, 9603.733
333.653, 9590.889
334.135, 9578.193
334.617, 9561.500
335.100, 9549.939
335.582, 9555.287
336.064, 9586.429
336.546, 9610.301
337.028, 9618.138
337.510, 9612.235
337.992, 9615.188
338.474, 9631.596
338.957, 9646.564
339.439, 9644.638
339.921, 9621.805
340.403, 9609.011
340.885, 9613.046
341.367, 9628.438
341.849, 9638.612
342.331, 9643.160
342.813, 9645.260
343.296, 9645.198
343.778, 9643.434
344.260, 9647.883
344.742, 9661.432
345.224, 9678.289
345.706, 9681.913
346.188, 9673.339
346.670, 9664.090
347.152, 9706.559
347.635, 9736.474
348.117, 9754.509
348.599, 9725.083
349.081, 9756.946
349.563, 9764.246
350.045, 9770.538
350.527, 9811.024
351.009, 9788.502
351.491, 9828.444
351.974, 9843.456
352.456, 9869.877
352.938, 9871.585
353.420, 9880.276
353.902, 9877.951
354.384, 9879.554
354.866, 9876.283
355.349, 9871.452
355.831, 9867.532
356.313, 9864.811
356.795, 9864.248
357.277, 9865.887
357.759, 9870.715
358.241, 9881.016
358.723, 9909.361
359.205, 9928.419
359.688, 9912.628
360.170, 9872.396
360.652, 9843.331
361.134, 9853.309
361.616, 9871.617
362.098, 9876.637
362.580, 9855.477
363.062, 9839.349
363.544, 9844.683
364.027, 9860.751
364.509, 9867.087
364.991, 9842.899
365.473, 9821.399
365.955, 9818.545
366.437, 9842.935
366.919, 9858.566
367.401, 9853.771
367.884, 9841.032
368.366, 9835.205
368.848, 9843.719
369.330, 9852.166
369.812, 9856.779
370.294, 9856.994
370.776, 9863.937
371.258, 9881.545
371.741, 9902.182
372.223, 9920.104
372.705, 9935.854
373.187, 9947.164
373.669, 9950.777
374.151, 9949.164
374.633, 9955.525
375.115, 9969.681
375.597, 9991.655
376.079, 10025.960
376.562, 10077.510
377.044, 10108.870
377.526, 10108.650
378.008, 10097.000
378.490, 10118.220
378.972, 10176.220
379.454, 10239.030
379.936, 10297.860
380.419, 10351.360
380.901, 10386.080
381.383, 10398.090
381.865, 10406.820
382.347, 10442.360
382.829, 10500.160
383.311, 10546.860
383.793, 10556.990
384.276, 10553.790
384.758, 10588.580
385.240, 10660.960
385.722, 10742.270
386.204, 10786.270
386.686, 10824.910
387.168, 10929.220
387.650, 11162.110
388.132, 11406.070
388.615, 11536.290
389.097, 11573.340
389.579, 11593.970
390.061, 11647.210
390.543, 11703.290
391.025, 11730.530
391.507, 11713.360
391.989, 11697.600
392.471, 11705.330
392.954, 11732.060
393.436, 11769.840
393.918, 11829.410
394.400, 11888.660
394.882, 11938.500
395.364, 11977.790
395.846, 12009.850
396.328, 12034.390
396.810, 12053.160
397.293, 12067.910
397.775, 12071.460
398.257, 12078.940
398.739, 12098.470
399.221, 12128.170
399.703, 12143.250
400.185, 12143.690
400.668, 12128.930
401.150, 12096.740
401.632, 12031.040
402.114, 11977.210
402.596, 11939.300
403.078, 11913.040
403.560, 11889.660
404.042, 11871.920
404.524, 11850.770
405.007, 11820.620
405.489, 11779.990
405.971, 11747.380
406.453, 11725.800
406.935, 11706.400
407.417, 11678.360
407.899, 11641.660
408.381, 11598.500
408.863, 11542.530
409.346, 11482.190
409.828, 11451.330
410.310, 11450.630
410.792, 11459.910
411.274, 11466.400
411.756, 11469.530
412.238, 11465.730
412.720, 11450.700
413.203, 11435.860
413.685, 11437.460
414.167, 11452.780
414.649, 11470.640
415.131, 11487.870
415.613, 11502.420
416.095, 11510.410
416.577, 11510.630
417.060, 11509.930
417.542, 11513.740
418.024, 11519.340
418.506, 11522.930
418.988, 11513.760
419.470, 11509.950
419.952, 11520.270
420.434, 11544.590
420.916, 11577.700
421.398, 11636.100
421.881, 11691.880
422.363, 11726.250
422.845, 11712.860
423.327, 11706.990
423.809, 11720.040
424.291, 11746.630
424.773, 11771.610
425.255, 11805.720
425.738, 11826.960
426.220, 11826.650
426.702, 11799.030
427.184, 11772.070
427.666, 11755.600
428.148, 11730.600
428.630, 11667.750
429.112, 11548.210
429.595, 11446.060
430.077, 11385.510
430.559, 11357.640
431.041, 11302.160
431.523, 11211.450
432.005, 11119.250
432.487, 11050.420
432.969, 11004.250
433.451, 10967.780
433.934, 10942.300
434.416, 10920.180
434.898, 10886.780
435.380, 10843.700
435.862, 10802.760
436.344, 10770.260
436.826, 10744.240
437.308, 10719.750
437.790, 10696.440
438.273, 10679.820
438.755, 10681.000
439.237, 10691.130
439.719, 10695.620
440.201, 10680.980
440.683, 10667.440
441.165, 10673.340
441.647, 10694.270
442.129, 10711.200
442.612, 10712.260
443.094, 10707.470
443.576, 10702.250
444.058, 10694.310
444.540, 10693.270
445.022, 10713.110
445.504, 10739.070
445.987, 10748.000
446.469, 10712.910
446.951, 10684.860
447.433, 10678.330
447.915, 10694.630
448.397, 10712.160
448.879, 10738.700
449.361, 10759.410
449.843, 10761.510
450.326, 10736.550
450.808, 10713.030
451.290, 10689.040
451.772, 10670.360
452.254, 10677.500
452.736, 10716.060
453.218, 10755.350
453.700, 10781.000
454.182, 10793.110
454.665, 10799.900
455.147, 10800.960
455.629, 10797.710
456.111, 10782.120
456.593, 10760.130
457.075, 10763.010
457.557, 10818.270
458.039, 10888.050
458.522, 10906.730
459.004, 10880.840
459.486, 10848.330
459.968, 10834.040
460.450, 10827.660
460.932, 10815.590
461.414, 10792.140
461.896, 10774.880
462.379, 10777.810
462.861, 10793.900
463.343, 10811.680
463.825, 10828.860
464.307, 10845.450
464.789, 10863.530
465.271, 10883.260
465.753, 10895.390
466.235, 10887.600
466.717, 10878.190
467.200, 10879.390
467.682, 10913.480
468.164, 10928.070
468.646, 10907.240
469.128, 10869.150
469.610, 10860.510
470.092, 10898.870
470.574, 10933.560
471.057, 10944.530
471.539, 10930.620
472.021, 10921.790
472.503, 10919.750
472.985, 10917.840
473.467, 10908.820
473.949, 10892.670
474.431, 10872.750
474.914, 10844.880
475.396, 10820.230
475.878, 10829.100
476.360, 10867.810
476.842, 10902.710
477.324, 10907.840
477.806, 10897.670
478.288, 10898.900
478.770, 10915.280
479.253, 10929.310
479.735, 10925.910
480.217, 10911.440
480.699, 10895.160
481.181, 10868.720
481.663, 10852.180
482.145, 10862.380
482.627, 10893.620
483.109, 10919.710
483.592, 10924.890
484.074, 10926.980
484.556, 10936.150
485.038, 10958.540
485.520, 10974.780
486.002, 10979.020
486.484, 10977.060
486.966, 10975.880
487.448, 10974.740
487.931, 10975.300
488.413, 10978.720
488.895, 10984.680
489.377, 10988.220
489.859, 10988.150
490.341, 10989.890
490.823, 11000.100
491.306, 11019.420
491.788, 11029.540
492.270, 11027.940
492.752, 11020.860
493.234, 11017.980
493.716, 11018.420
494.198, 11015.090
494.680, 10995.960
495.162, 10975.980
495.645, 10987.750
496.127, 11028.050
496.609, 11062.710
497.091, 11051.380
497.573, 11027.910
498.055, 11036.510
498.537, 11100.730
499.019, 11159.020
499.501, 11167.770
499.984, 11151.090
500.466, 11149.630
500.948, 11196.710
501.430, 11241.430
501.912, 11261.920
502.394, 11256.050
502.876, 11263.000
503.358, 11297.640
503.841, 11336.210
504.323, 11364.950
504.805, 11378.710
505.287, 11392.620
505.769, 11403.810
506.251, 11417.230
506.733, 11446.230
507.215, 11496.500
507.698, 11536.300
508.180, 11551.430
508.662, 11546.570
509.144, 11547.990
509.626, 11556.400
510.108, 11563.030
510.590, 11558.380
511.072, 11545.970
511.554, 11535.790
512.036, 11530.150
512.519, 11525.710
513.001, 11523.050
513.483, 11519.040
513.965, 11506.340
514.447, 11456.540
514.929, 11416.680
515.411, 11432.010
515.893, 11498.670
516.375, 11548.980
516.858, 11539.670
517.340, 11514.790
517.822, 11504.500
518.304, 11521.890
518.786, 11538.620
519.268, 11548.580
519.750, 11557.120
520.232, 11574.310
520.715, 11614.950
521.197, 11638.810
521.679, 11629.070
522.161, 11589.740
522.643, 11570.860
523.125, 11573.870
523.607, 11592.600
524.089, 11632.260
524.571, 11690.720
525.054, 11702.810
525.536, 11696.212
526.018, 11734.460
526.500, 11761.822
526.982, 11778.883
527.464, 11754.783
527.946, 11783.836
528.429, 11791.587
528.911, 11798.463
529.393, 11834.995
529.875, 11816.883
530.357, 11852.942
530.839, 11867.378
531.321, 11891.710
531.803, 11894.610
532.286, 11903.570
532.768, 11926.350
533.250, 11971.880
533.732, 12010.480
534.214, 12034.310
534.696, 12056.500
535.178, 12075.100
535.660, 12092.770
536.142, 12125.650
536.625, 12182.120
537.107, 12239.960
537.589, 12286.340
538.071, 12319.000
538.553, 12364.000
539.035, 12423.580
539.517, 12490.540
539.999, 12562.390
540.481, 12637.370
540.964, 12695.950
541.446, 12726.870
541.928, 12748.030
542.410, 12790.790
542.892, 12848.850
543.374, 12897.540
543.856, 12910.100
544.338, 12914.890
544.820, 12939.870
545.303, 12987.510
545.785, 13038.300
546.267, 13091.120
546.749, 13139.050
547.231, 13176.220
547.713, 13196.340
548.195, 13212.230
548.677, 13227.650
549.159, 13239.960
549.642, 13242.340
550.124, 13226.510
550.606, 13214.530
551.088, 13212.400
551.570, 13220.000
552.052, 13230.730
552.534, 13243.880
553.016, 13262.600
553.499, 13298.190
553.981, 13346.960
554.463, 13365.750
554.945, 13345.370
555.427, 13311.260
555.909, 13294.060
556.391, 13290.210
556.873, 13289.140
557.356, 13284.730
557.838, 13283.010
558.320, 13296.620
558.802, 13320.600
559.284, 13332.850
559.766, 13302.720
560.248, 13271.820
560.730, 13273.070
561.213, 13324.470
561.695, 13353.510
562.177, 13330.710
562.659, 13287.530
563.141, 13254.480
563.623, 13231.940
564.105, 13218.790
564.587, 13217.860
565.069, 13224.870
565.552, 13228.750
566.034, 13228.910
566.516, 13227.530
566.998, 13227.830
567.480, 13227.780
567.962, 13209.870
568.444, 13172.730
568.926, 13141.950
569.408, 13151.800
569.891, 13183.280
570.373, 13196.530
570.855, 13182.440
571.337, 13157.140
571.819, 13115.490
572.301, 13074.920
572.783, 13021.974
573.265, 13022.459
573.747, 13009.973
574.230, 12985.217
574.712, 12911.444
575.194, 12900.110
575.676, 12865.640
576.158, 12845.790
576.640, 12813.010
577.122, 12762.720
577.604, 12723.790
578.086, 12702.260
578.569, 12684.490
579.051, 12655.070
579.533, 12612.780
580.015, 12574.570
580.497, 12543.490
580.979, 12517.530
581.461, 12489.280
581.943, 12460.900
582.426, 12445.610
582.908, 12462.880
583.390, 12489.970
583.872, 12493.760
584.354, 12476.090
584.836, 12458.630
585.318, 12453.050
585.800, 12453.470
586.282, 12455.820
586.765, 12460.180
587.247, 12463.620
587.729, 12465.640
588.211, 12466.100
588.693, 12465.080
589.175, 12465.780
589.657, 12460.190
590.140, 12446.130
590.622, 12425.520
591.104, 12401.040
591.586, 12367.890
592.068, 12349.620
592.550, 12366.150
593.032, 12409.340
593.514, 12424.170
593.996, 12409.820
594.479, 12390.000
594.961, 12383.160
595.443, 12385.710
595.925, 12394.170
596.407, 12412.240
596.889, 12420.080
597.371, 12374.670
597.853, 12364.753
598.335, 12383.381
598.818, 12395.080
599.300, 12400.223
599.782, 12379.170
600.264, 12391.943
600.746, 12391.160
601.228, 12389.821
601.710, 12407.355
602.192, 12390.112
602.674, 12407.347
603.157, 12410.818
603.639, 12411.100
604.121, 12481.020
604.603, 12493.110
605.085, 12451.790
605.567, 12426.860
606.049, 12429.270
606.531, 12440.220
607.013, 12432.580
607.496, 12413.530
607.978, 12402.570
608.460, 12411.650
608.942, 12427.200
609.424, 12439.360
609.906, 12449.070
610.388, 12460.130
610.870, 12477.960
611.353, 12493.980
611.835, 12502.460
612.317, 12501.720
612.799, 12504.460
613.281, 12523.290
613.763, 12534.110
614.245, 12514.870
614.727, 12449.190
615.209, 12416.210
615.692, 12427.890
616.174, 12459.860
616.656, 12478.030
617.138, 12483.380
617.620, 12489.820
618.102, 12501.470
618.584, 12516.530
619.067, 12537.180
619.549, 12559.930
620.031, 12571.960
620.513, 12554.850
620.995, 12532.220
621.477, 12522.660
621.959, 12526.950
622.441, 12532.460
622.923, 12538.910
623.406, 12541.860
623.888, 12536.200
624.370, 12506.190
624.852, 12501.920
625.334, 12537.570
625.816, 12585.800
626.298, 12615.000
626.780, 12623.490
627.263, 12619.760
627.745, 12599.950
628.227, 12576.050
628.709, 12575.030
629.191, 12594.850
629.673, 12619.230
630.155, 12650.320
630.637, 12676.150
631.119, 12675.720
631.602, 12652.110
632.084, 12627.310
632.566, 12603.280
633.048, 12590.370
633.530, 12600.180
634.012, 12642.280
634.494, 12675.030
634.976, 12684.120
635.458, 12684.510
635.941, 12689.290
636.423, 12702.890
636.905, 12709.890
637.387, 12705.020
637.869, 12697.070
638.351, 12706.620
638.833, 12734.630
639.315, 12750.700
639.797, 12739.130
640.280, 12714.550
640.762, 12706.030
641.244, 12711.560
641.726, 12719.720
642.208, 12725.160
642.690, 12729.330
643.172, 12730.950
643.654, 12730.160
644.137, 12738.690
644.619, 12771.200
645.101, 12808.460
645.583, 12839.410
646.065, 12872.650
646.547, 12876.890
647.029, 12828.000
647.511, 12770.910
647.994, 12762.020
648.476, 12809.910
648.958, 12859.420
649.440, 12900.360
649.922, 12937.410
650.404, 12982.030
650.886, 13031.540
651.368, 13074.630
651.851, 13112.480
652.333, 13135.690
652.815, 13120.510
653.297, 13075.100
653.779, 13043.220
654.261, 13055.840
654.743, 13083.440
655.225, 13114.720
655.707, 13152.940
656.190, 13166.830
656.672, 13122.520
657.154, 13077.670
657.636, 13074.370
658.118, 13136.890
658.600, 13164.220
659.082, 13143.440
659.564, 13105.450
660.046, 13093.420
660.529, 13105.320
661.011, 13119.800
661.493, 13134.150
661.975, 13143.860
662.457, 13137.680
662.939, 13121.390
663.421, 13110.640
663.903, 13124.300
664.385, 13136.630
664.868, 13123.370
665.350, 13090.300
665.832, 13077.410
666.314, 13121.040
666.796, 13162.500
667.278, 13171.270
667.760, 13138.360
668.242, 13143.500
668.724, 13202.060
669.207, 13266.190
669.689, 13296.360
670.171, 13292.990
670.653, 13281.770
671.135, 13262.190
671.617, 13243.840
672.099, 13241.630
672.581, 13248.310
673.064, 13248.300
673.546, 13233.520
674.028, 13217.700
674.510, 13204.800
674.992, 13198.470
675.474, 13205.330
675.956, 13250.570
676.438, 13285.150
676.920, 13293.620
677.403, 13281.250
677.885, 13267.160
678.367, 13248.150
678.849, 13235.830
679.331, 13235.710
679.813, 13246.790
680.295, 13263.940
680.778, 13287.280
681.260, 13307.630
681.742, 13308.340
682.224, 13302.750
682.706, 13318.720
683.188, 13361.010
683.670, 13401.260
684.152, 13413.950
684.634, 13418.170
685.117, 13433.750
685.599, 13481.170
686.081, 13512.830
686.563, 13513.980
687.045, 13499.910
687.527, 13485.750
688.009, 13463.680
688.491, 13467.000
688.973, 13512.050
689.456, 13575.140
689.938, 13596.940
690.420, 13580.250
690.902, 13565.350
691.384, 13571.240
691.866, 13587.380
692.348, 13597.840
692.830, 13604.090
693.312, 13613.560
693.795, 13633.200
694.277, 13654.420
694.759, 13671.040
695.241, 13682.110
695.723, 13695.490
696.205, 13724.070
696.687, 13744.070
697.169, 13739.630
697.652, 13702.180
698.134, 13683.580
698.616, 13688.150
699.098, 13700.560
699.580, 13709.190
700.062, 13713.420
700.544, 13702.770
701.026, 13686.619
701.508, 13712.327
701.991, 13727.875
702.473, 13733.808
702.955, 13701.327
703.437, 13718.449
703.919, 13715.693
704.401, 13712.121
704.883, 13736.225
705.365, 13727.780
705.847, 13745.760
706.330, 13768.410
706.812, 13782.710
707.294, 13788.880
707.776, 13786.820
708.258, 13775.740
708.740, 13762.520
709.222, 13753.960
709.705, 13744.550
710.187, 13716.631
710.669, 13742.557
711.151, 13755.413
711.633, 13755.900
712.115, 13706.975
712.597, 13721.856
713.079, 13711.167
713.561, 13699.429
714.044, 13723.291
714.526, 13681.554
715.008, 13704.850
715.490, 13702.186
715.972, 13711.403
716.454, 13694.893
716.936, 13686.329
717.418, 13703.502
717.901, 13706.423
718.383, 13686.951
718.865, 13696.925
719.347, 13666.020
719.829, 13652.030
720.311, 13665.920
720.793, 13668.710
721.275, 13638.790
721.757, 13606.610
722.240, 13577.380
722.722, 13556.750
723.204, 13556.180
723.686, 13604.170
724.168, 13637.430
724.650, 13646.920
725.132, 13634.130
725.614, 13597.300
726.096, 13530.660
726.579, 13478.030
727.061, 13462.100
727.543, 13471.440
728.025, 13480.800
728.507, 13490.290
728.989, 13500.710
729.471, 13518.740
729.953, 13533.660
730.435, 13539.700
730.918, 13536.450
731.400, 13514.990
731.882, 13436.040
732.364, 13371.110
732.846, 13363.080
733.328, 13429.370
733.810, 13463.220
734.292, 13457.650
734.775, 13435.740
735.257, 13410.170
735.739, 13383.610
736.221, 13379.620
736.703, 13404.220
737.185, 13423.150
737.667, 13398.360
738.149, 13348.020
738.631, 13294.430
739.114, 13229.480
739.596, 13191.850
740.078, 13217.700
740.560, 13271.310
741.042, 13304.140
741.524, 13299.210
742.006, 13302.600
742.489, 13324.610
742.971, 13351.890
743.453, 13352.610
743.935, 13326.790
744.417, 13314.460
744.899, 13334.540
745.381, 13363.480
745.863, 13362.790
746.345, 13340.350
746.828, 13320.370
747.310, 13308.130
747.792, 13306.470
748.274, 13325.890
748.756, 13359.890
749.238, 13377.530
749.720, 13361.600
750.202, 13347.560
750.684, 13350.470
751.167, 13366.320
751.649, 13357.040
752.131, 13319.730
752.613, 13283.770
753.095, 13267.020
753.577, 13264.380
754.059, 13272.570
754.541, 13288.860
755.023, 13283.960
755.506, 13197.340
755.988, 13110.660
756.470, 13095.820
756.952, 13170.400
757.434, 13233.420
757.916, 13271.750
758.398, 13290.120
758.880, 13286.850
759.362, 13256.170
759.845, 13233.880
760.327, 13220.380
760.809, 13213.910
761.291, 13224.680
761.773, 13241.890
762.255, 13224.720
762.737, 13163.510
763.219, 13102.670
763.702, 13070.110
764.184, 13062.030
764.666, 13076.970
765.148, 13138.050
765.630, 13179.610
766.112, 13178.060
766.594, 13160.532
767.076, 13188.679
767.558, 13205.737
768.041, 13212.306
768.523, 13176.962
769.005, 13195.738
769.487, 13192.826
769.969, 13189.024
770.451, 13215.418
770.933, 13206.300
771.416, 13219.480
771.898, 13246.540
772.380, 13279.180
772.862, 13302.700
773.344, 13314.600
773.826, 13314.590
774.308, 13298.030
774.790, 13271.610
775.272, 13248.860
775.755, 13230.060
776.237, 13217.080
776.719, 13213.600
777.201, 13213.690
777.683, 13198.850
778.165, 13173.290
778.647, 13156.350
779.129, 13161.400
779.612, 13176.130
780.094, 13190.470
780.576, 13205.550
781.058, 13225.950
781.540, 13265.060
782.022, 13295.690
782.504, 13309.100
782.986, 13306.810
783.468, 13299.410
783.951, 13285.750
784.433, 13270.490
784.915, 13248.390
785.397, 13228.300
785.879, 13249.710
786.361, 13306.220
786.843, 13346.820
787.325, 13325.980
787.807, 13287.230
788.290, 13258.910
788.772, 13243.370
789.254, 13249.310
789.736, 13237.376
790.218, 13270.400
790.700, 13292.510
791.182, 13304.297
791.664, 13274.825
792.146, 13298.626
792.629, 13301.078
793.111, 13302.655
793.593, 13333.954
794.075, 13330.300
794.557, 13337.440
795.039, 13358.550
795.521, 13410.110
796.003, 13461.650
796.485, 13488.300
796.968, 13484.370
797.450, 13472.480
797.932, 13450.950
798.414, 13427.990
798.896, 13404.260
799.378, 13377.090
799.860, 13384.880
800.343, 13434.190
800.825, 13482.060
801.307, 13485.150
801.789, 13461.440
802.271, 13442.540
802.753, 13432.110
803.235, 13428.080
803.717, 13428.340
804.199, 13434.770
804.682, 13451.950
805.164, 13494.040
805.646, 13509.500
806.128, 13490.290
806.610, 13455.390
807.092, 13409.970
807.574, 13354.580
808.056, 13346.840
808.539, 13396.000
809.021, 13452.640
809.503, 13468.090
809.985, 13459.490
810.467, 13449.970
810.949, 13442.420
811.431, 13440.120
811.913, 13444.800
812.395, 13455.210
812.878, 13470.630
813.360, 13494.000
813.842, 13515.900
814.324, 13538.970
814.806, 13555.080
815.288, 13555.900
815.770, 13542.060
816.252, 13509.210
816.734, 13450.140
817.217, 13410.820
817.699, 13460.680
818.181, 13540.980
818.663, 13578.380
819.145, 13528.370
819.627, 13496.720
820.109, 13525.580
820.591, 13567.030
821.073, 13576.800
821.556, 13546.340
822.038, 13525.570
822.520, 13517.570
823.002, 13521.910
823.484, 13551.870
823.966, 13592.550
824.448, 13601.910
824.930, 13561.300
825.413, 13528.350
825.895, 13554.850
826.377, 13601.750
826.859, 13628.140
827.341, 13597.330
827.823, 13592.480
828.305, 13625.140
828.787, 13669.340
829.269, 13700.470
829.752, 13718.180
830.234, 13716.260
830.716, 13689.760
831.198, 13663.750
831.680, 13669.240
832.162, 13692.040
832.644, 13712.730
833.127, 13729.800
833.609, 13736.640
834.091, 13718.330
834.573, 13696.470
835.055, 13694.060
835.537, 13721.530
836.019, 13737.440
836.501, 13736.790
836.983, 13732.680
837.466, 13741.120
837.948, 13759.330
838.430, 13779.500
838.912, 13802.410
839.394, 13815.940
839.876, 13797.070
840.358, 13770.930
840.840, 13764.350
841.322, 13789.270
841.805, 13822.660
842.287, 13877.400
842.769, 13924.010
843.251, 13927.250
843.733, 13884.510
844.215, 13865.230
844.697, 13875.900
845.179, 13903.960
845.661, 13946.730
846.144, 13994.160
846.626, 14032.040
847.108, 14057.330
847.590, 14074.150
848.072, 14076.370
848.554, 14075.790
849.036, 14084.260
849.518, 14112.040
850.000, 14113.820
850.483, 14079.830
850.965, 14046.710
851.447, 14057.880
851.929, 14099.890
852.411, 14128.120
852.893, 14138.060
853.375, 14138.840
853.857, 14120.180
854.340, 14106.820
854.822, 14126.310
855.304, 14198.620
855.786, 14242.420
856.268, 14232.430
856.750, 14221.570
857.232, 14254.190
857.714, 14330.110
858.196, 14362.420
858.679, 14345.880
859.161, 14340.260
859.643, 14424.610
860.125, 14533.990
860.607, 14581.970
861.089, 14556.980
861.571, 14526.890
862.054, 14496.540
862.536, 14485.980
863.018, 14511.880
863.500, 14578.800
863.982, 14615.400
864.464, 14615.720
864.946, 14614.500
865.428, 14644.160
865.910, 14687.480
866.393, 14698.320
866.875, 14679.130
867.357, 14669.110
867.839, 14695.490
868.321, 14734.690
868.803, 14770.840
869.285, 14803.620
869.767, 14842.860
870.250, 14846.800
870.732, 14835.086
871.214, 14885.259
871.696, 14920.411
872.178, 14941.348
872.660, 14905.489
873.142, 14942.974
873.624, 14951.063
874.106, 14957.947
874.589, 15005.749
875.071, 15005.430
875.553, 14998.210
876.035, 15029.700
876.517, 15060.770
876.999, 15083.960
877.481, 15099.400
877.963, 15107.980
878.445, 15109.490
878.928, 15105.200
879.410, 15088.310
879.892, 15074.260
880.374, 15099.400
880.856, 15143.460
881.338, 15157.430
881.820, 15077.840
882.302, 15019.040
882.784, 15030.460
883.267, 15077.080
883.749, 15088.800
884.231, 15057.770
884.713, 15037.730
885.195, 15043.410
885.677, 15056.990
886.159, 15049.330
886.641, 15028.440
887.123, 15013.610
887.606, 15020.890
888.088, 15018.430
888.570, 14974.000
889.052, 14920.380
889.534, 14904.230
890.016, 14948.910
890.498, 14967.170
890.981, 14946.080
891.463, 14913.880
891.945, 14908.390
892.427, 14921.850
892.909, 14932.450
893.391, 14936.370
893.873, 14934.840
894.355, 14932.090
894.837, 14921.380
895.320, 14890.930
895.802, 14816.920
896.284, 14790.760
896.766, 14833.150
897.248, 14885.280
897.730, 14898.740
898.212, 14879.490
898.694, 14862.040
899.177, 14848.420
899.659, 14843.260
900.141, 14863.310
900.623, 14884.910
901.105, 14884.530
901.587, 14859.080
902.069, 14843.110
902.551, 14855.080
903.033, 14855.390
903.516, 14820.310
903.998, 14757.800
904.480, 14719.660
904.962, 14705.270
905.444, 14699.800
905.926, 14689.050
906.408, 14686.420
906.890, 14686.090
907.372, 14661.007
907.855, 14720.562
908.337, 14759.567
908.819, 14779.136
909.301, 14721.040
909.783, 14763.230
910.265, 14765.229
910.747, 14765.585
911.229, 14799.760
911.711, 14804.870
912.194, 14832.420
912.676, 14780.300
913.158, 14691.770
913.640, 14647.290
914.122, 14723.580
914.604, 14781.850
915.086, 14791.750
915.568, 14778.670
916.050, 14757.960
916.533, 14723.050
917.015, 14698.585
917.497, 14760.859
917.979, 14802.079
918.461, 14823.375
918.943, 14765.074
919.425, 14809.560
919.907, 14812.850
920.390, 14814.453
920.872, 14873.400
921.354, 14826.679
921.836, 14884.716
922.318, 14900.938
922.800, 14936.296
923.282, 14930.211
923.765, 14936.931
924.247, 14985.103
924.729, 15010.320
925.211, 14999.464
925.693, 14992.580
926.175, 14984.950
926.657, 14996.150
927.139, 15019.170
927.621, 15054.680
928.104, 15099.900
928.586, 15139.090
929.068, 15174.560
929.550, 15180.280
930.032, 15122.930
930.514, 15051.460
930.996, 15053.230
931.478, 15104.210
931.960, 15138.960
932.443, 15113.440
932.925, 15088.250
933.407, 15078.000
933.889, 15080.930
934.371, 15099.070
934.853, 15135.900
935.335, 15160.000
935.817, 15162.590
936.299, 15160.690
936.782, 15182.310
937.264, 15213.000
937.746, 15227.340
938.228, 15212.560
938.710, 15199.540
939.192, 15184.890
939.674, 15186.390
940.156, 15224.690
940.638, 15311.460
941.121, 15358.180
941.603, 15360.760
942.085, 15353.320
942.567, 15362.130
943.049, 15380.390
943.531, 15402.880
944.013, 15428.410
944.495, 15441.790
944.978, 15419.130
945.460, 15402.840
945.942, 15411.880
946.424, 15442.470
946.906, 15467.850
947.388, 15487.910
947.870, 15506.320
948.352, 15523.620
948.834, 15541.310
949.317, 15560.210
949.799, 15581.200
950.281, 15606.130
950.763, 15629.100
951.245, 15665.860
951.727, 15731.790
952.209, 15802.790
952.692, 15835.570
953.174, 15828.730
953.656, 15845.980
954.138, 15898.820
954.620, 15970.010
955.102, 16054.540
955.584, 16139.900
956.066, 16210.870
956.548, 16262.210
957.031, 16307.730
957.513, 16342.740
957.995, 16381.940
958.477, 16430.971
958.959, 16490.631
959.441, 16578.260
959.923, 16693.320
960.405, 16822.510
960.888, 16969.400
961.370, 17116.510
961.852, 17239.920
962.334, 17344.500
962.816, 17461.330
963.298, 17579.199
963.780, 17733.189
964.262, 17944.529
964.744, 18186.660
965.227, 18392.381
965.709, 18568.939
966.191, 18752.619
966.673, 18931.320
967.155, 19169.449
967.637, 19584.730
968.119, 20064.930
968.601, 20459.029
969.083, 20644.510
969.566, 20922.160
970.048, 21298.250
970.530, 21757.240
971.012, 22289.410
971.494, 22886.199
971.976, 23489.881
972.458, 24100.779
972.940, 24735.609
973.422, 25378.500
973.905, 26076.520
974.387, 26856.221
974.869, 27717.119
975.351, 28620.211
975.833, 29565.520
976.315, 30533.811
976.797, 31520.260
977.279, 32538.051
977.761, 33615.801
978.244, 34740.711
978.726, 35885.641
979.208, 37052.391
979.690, 38205.051
980.172, 39312.551
980.654, 40407.160
981.136, 41548.551
981.619, 42783.891
982.101, 43806.172
982.583, 44581.480
983.065, 45158.160
983.547, 45607.879
984.029, 45887.641
984.511, 45921.398
984.993, 45684.551
985.475, 45301.461
985.958, 44731.270
986.440, 44094.441
986.922, 43437.660
987.404, 42761.340
987.886, 42056.500
988.368, 41321.191
988.850, 40608.680
989.332, 39935.891
989.815, 39311.602
990.297, 38742.281
990.779, 38229.770
991.261, 37780.289
991.743, 37369.309
992.225, 37068.969
992.707, 36916.328
993.189, 36842.949
993.671, 36741.199
994.154, 36617.461
994.636, 36501.469
995.118, 36401.109
995.600, 36297.828
996.082, 36247.020
996.564, 36140.102
997.046, 35870.730
997.528, 35424.770
998.010, 34888.840
998.493, 34258.691
998.975, 33569.191
999.457, 32811.520
999.939, 32020.961
1000.421, 31250.250
1000.903, 30504.641
1001.385, 29839.410
1001.867, 29281.859
1002.349, 28799.020
1002.832, 28368.811
1003.314, 28003.330
1003.796, 27735.580
1004.278, 27574.779
1004.760, 27440.311
1005.242, 27323.990
1005.724, 27206.789
1006.206, 27060.170
1006.689, 26904.359
1007.171, 26775.061
1007.653, 26696.510
1008.135, 26573.740
1008.617, 26369.250
1009.099, 26162.381
1009.581, 26015.039
1010.063, 25914.529
1010.545, 25738.160
1011.028, 25496.010
1011.510, 25296.971
1011.992, 25241.730
1012.474, 25211.920
1012.956, 25127.891
1013.438, 25005.770
1013.920, 24898.029
1014.402, 24792.420
1014.885, 24745.289
1015.367, 24776.520
1015.849, 24845.150
1016.331, 24889.740
1016.813, 24928.801
1017.295, 25020.689
1017.777, 25205.881
1018.259, 25312.840
1018.741, 25195.070
1019.224, 25044.631
1019.706, 24974.539
1020.188, 24984.750
1020.670, 25019.721
1021.152, 25079.580
1021.634, 25168.580
1022.116, 25284.609
1022.598, 25434.930
1023.081, 25632.141
1023.563, 25870.680
1024.045, 26134.301
1024.527, 26396.471
1025.009, 26724.510
1025.491, 27139.189
1025.973, 27602.471
1026.455, 28049.881
1026.938, 28492.020
1027.420, 28989.971
1027.902, 29550.631
1028.384, 30186.811
1028.866, 30929.189
1029.348, 31732.039
1029.830, 32573.580
1030.312, 33443.629
1030.794, 34373.238
1031.276, 35356.172
1031.759, 36394.141
1032.241, 37510.340
1032.723, 38666.469
1033.205, 39799.910
1033.687, 40922.250
1034.169, 42034.199
1034.651, 43121.699
1035.133, 44226.121
1035.616, 45382.129
1036.098, 46504.320
1036.580, 47496.520
1037.062, 48350.680
1037.544, 49070.309
1038.026, 49640.410
1038.508, 50108.262
1038.990, 50563.199
1039.473, 50871.891
1039.955, 50928.488
1040.437, 50725.289
1040.919, 50303.711
1041.401, 49645.371
1041.883, 48847.840
1042.365, 47955.719
1042.847, 46941.238
1043.329, 45742.488
1043.812, 44408.340
1044.294, 43015.969
1044.776, 41567.910
1045.258, 40123.199
1045.740, 38657.449
1046.222, 37202.070
1046.704, 35766.090
1047.186, 34342.980
1047.668, 33034.980
1048.151, 31839.801
1048.633, 30708.891
1049.115, 29552.170
1049.597, 28460.869
1050.079, 27499.330
1050.561, 26669.670
1051.043, 25919.230
1051.525, 25262.461
1052.008, 24637.850
1052.490, 24025.150
1052.972, 23457.699
1053.454, 22998.090
1053.936, 22607.930
1054.418, 22215.881
1054.900, 21798.650
1055.382, 21397.330
1055.865, 20997.080
1056.347, 20643.020
1056.829, 20371.859
1057.311, 20175.660
1057.793, 19956.721
1058.275, 19717.471
1058.757, 19488.000
1059.239, 19282.420
1059.721, 19097.119
1060.203, 18933.689
1060.686, 18788.010
1061.168, 18643.869
1061.650, 18497.631
1062.132, 18370.779
1062.614, 18272.529
1063.096, 18171.150
1063.578, 18018.240
1064.060, 17845.141
1064.543, 17697.961
1065.025, 17582.211
1065.507, 17490.939
1065.989, 17441.939
1066.471, 17391.850
1066.953, 17325.971
1067.435, 17247.600
1067.917, 17156.580
1068.400, 17056.971
1068.882, 16975.061
1069.364, 16928.939
1069.846, 16886.869
1070.328, 16813.230
1070.810, 16741.590
1071.292, 16718.920
1071.774, 16769.131
1072.256, 16762.330
1072.739, 16690.471
1073.221, 16609.820
1073.703, 16561.660
1074.185, 16531.250
1074.667, 16496.730
1075.149, 16461.410
1075.631, 16446.320
1076.113, 16490.080
1076.596, 16499.211
1077.078, 16449.430
1077.560, 16370.900
1078.042, 16307.840
1078.524, 16259.130
1079.006, 16217.980
1079.488, 16183.010
1079.970, 16157.210
1080.453, 16158.170
1080.935, 16153.820
1081.417, 16118.040
1081.899, 16055.240
1082.381, 16031.930
1082.863, 16047.310
1083.345, 16064.140
1083.827, 16063.740
1084.309, 16058.060
1084.792, 16052.820
1085.274, 16050.950
1085.756, 16058.620
1086.238, 16081.130
1086.720, 16101.470
1087.202, 16121.050
1087.684, 16131.600
1088.166, 16130.330
1088.648, 16112.960
1089.131, 16056.310
1089.613, 15968.670
1090.095, 15909.120
1090.577, 15922.770
1091.059, 15940.110
1091.541, 15945.690
1092.023, 15944.150
1092.505, 15944.910
1092.988, 15947.050
1093.470, 15944.400
1093.952, 15935.170
1094.434, 15924.110
1094.916, 15908.770
1095.398, 15896.990
1095.880, 15896.050
1096.362, 15905.190
1096.844, 15910.590
1097.327, 15911.720
1097.809, 15913.510
1098.291, 15915.550
1098.773, 15922.750
1099.255, 15960.460
1099.737, 16001.300
1100.219, 15996.390
1100.701, 15888.220
1101.183, 15831.570
1101.666, 15840.240
1102.148, 15867.140
1102.630, 15857.220
1103.112, 15840.520
1103.594, 15908.700
1104.076, 16044.040
1104.558, 16121.900
1105.040, 16040.530
1105.523, 15961.520
1106.005, 15927.580
1106.487, 15915.930
1106.969, 15880.560
1107.451, 15828.590
1107.933, 15804.710
1108.415, 15817.700
1108.897, 15843.120
1109.380, 15896.810
1109.862, 15929.110
1110.344, 15893.320
1110.826, 15800.440
1111.308, 15746.580
1111.790, 15733.160
1112.272, 15724.480
1112.754, 15703.230
1113.236, 15687.890
1113.719, 15706.310
1114.201, 15738.700
1114.683, 15758.190
1115.165, 15759.330
1115.647, 15747.470
1116.129, 15716.230
1116.611, 15693.540
1117.093, 15709.170
1117.575, 15741.170
1118.058, 15755.920
1118.540, 15754.190
1119.022, 15740.390
1119.504, 15687.750
1119.986, 15667.320
1120.468, 15703.990
1120.950, 15750.410
1121.432, 15737.810
1121.915, 15684.350
1122.397, 15651.900
1122.879, 15646.400
1123.361, 15645.300
1123.843, 15636.790
1124.325, 15631.180
1124.807, 15633.390
1125.289, 15641.550
1125.771, 15649.380
1126.254, 15657.240
1126.736, 15669.280
1127.218, 15687.320
1127.700, 15706.330
1128.182, 15722.880
1128.664, 15737.410
1129.146, 15750.800
1129.628, 15763.040
1130.110, 15765.820
1130.593, 15757.730
1131.075, 15751.910
1131.557, 15755.840
1132.039, 15763.490
1132.521, 15773.930
1133.003, 15781.830
1133.485, 15776.180
1133.967, 15734.370
1134.450, 15733.800
1134.932, 15789.780
1135.414, 15838.810
1135.896, 15823.090
1136.378, 15769.680
1136.860, 15706.260
1137.342, 15643.890
1137.824, 15620.400
1138.307, 15697.420
1138.789, 15744.490
1139.271, 15736.210
1139.753, 15705.450
1140.235, 15695.630
1140.717, 15699.890
1141.199, 15698.430
1141.681, 15688.400
1142.163, 15682.620
1142.646, 15690.230
1143.128, 15699.650
1143.610, 15713.070
1144.092, 15720.910
1144.574, 15682.580
1145.056, 15610.380
1145.538, 15568.170
1146.020, 15579.500
1146.502, 15601.830
1146.985, 15624.210
1147.467, 15636.270
1147.949, 15629.870
1148.431, 15606.470
1148.913, 15580.080
1149.395, 15551.690
1149.877, 15540.250
1150.359, 15561.170
1150.842, 15593.110
1151.324, 15627.430
1151.806, 15658.000
1152.288, 15675.770
1152.770, 15679.190
1153.252, 15670.110
1153.734, 15646.020
1154.216, 15628.270
1154.698, 15634.660
1155.181, 15653.010
1155.663, 15676.200
1156.145, 15700.670
1156.627, 15717.190
1157.109, 15729.180
1157.591, 15722.890
1158.073, 15694.090
1158.555, 15659.360
1159.037, 15625.450
1159.520, 15603.450
1160.002, 15621.510
1160.484, 15675.330
1160.966, 15699.230
1161.448, 15661.160
1161.930, 15637.200
1162.412, 15648.250
1162.894, 15670.930
1163.377, 15665.490
1163.859, 15644.350
1164.341, 15632.730
1164.823, 15636.700
1165.305, 15631.590
1165.787, 15592.360
1166.269, 15572.710
1166.751, 15599.350
1167.234, 15653.430
1167.716, 15696.410
1168.198, 15725.110
1168.680, 15728.210
1169.162, 15692.710
1169.644, 15657.890
1170.126, 15633.290
1170.608, 15616.100
1171.090, 15597.550
1171.573, 15584.550
1172.055, 15641.440
1172.537, 15748.400
1173.019, 15812.110
1173.501, 15736.130
1173.983, 15675.030
1174.465, 15716.250
1174.947, 15777.420
1175.430, 15780.650
1175.912, 15728.700
1176.394, 15702.280
1176.876, 15702.190
1177.358, 15710.280
1177.840, 15708.140
1178.322, 15719.480
1178.804, 15783.920
1179.286, 15856.510
1179.769, 15858.350
1180.251, 15787.530
1180.733, 15755.080
1181.215, 15771.970
1181.697, 15793.890
1182.179, 15780.690
1182.661, 15766.730
1183.143, 15776.500
1183.625, 15804.880
1184.108, 15842.040
1184.590, 15890.650
1185.072, 15902.930
1185.554, 15865.460
1186.036, 15821.810
1186.518, 15799.250
1187.000, 15796.670
1187.482, 15828.760
1187.965, 15887.730
1188.447, 15889.870
1188.929, 15827.380
1189.411, 15796.320
1189.893, 15837.630
1190.375, 15883.650
1190.857, 15846.070
1191.339, 15784.930
1191.822, 15774.140
1192.304, 15826.200
1192.786, 15841.830
1193.268, 15814.870
1193.750, 15796.340
1194.232, 15816.470
1194.714, 15843.450
1195.196, 15840.580
1195.678, 15819.300
1196.161, 15791.900
1196.643, 15747.990
1197.125, 15750.480
1197.607, 15809.660
1198.089, 15857.920
1198.571, 15831.970
1199.053, 15789.080
1199.535, 15810.360
1200.017, 15866.500
1200.500, 15899.310
1200.982, 15893.400
1201.464, 15881.770
1201.946, 15864.230
1202.428, 15845.000
1202.910, 15821.880
1203.392, 15803.580
1203.874, 15807.940
1204.357, 15827.120
1204.839, 15832.830
1205.321, 15804.670
1205.803, 15807.890
1206.285, 15854.800
1206.767, 15907.140
1207.249, 15924.720
1207.731, 15923.560
1208.214, 15921.780
1208.696, 15920.410
1209.178, 15917.340
1209.660, 15908.100
1210.142, 15910.000
1210.624, 15929.960
1211.106, 15948.110
1211.588, 15934.850
1212.070, 15908.150
1212.552, 15892.510
1213.035, 15889.730
1213.517, 15887.490
1213.999, 15881.410
1214.481, 15884.800
1214.963, 15904.770
1215.445, 15924.580
1215.927, 15915.770
1216.409, 15893.760
1216.892, 15881.550
1217.374, 15883.820
1217.856, 15877.270
1218.338, 15856.540
1218.820, 15839.160
1219.302, 15829.120
1219.784, 15830.230
1220.266, 15861.230
1220.749, 15901.880
1221.231, 15918.890
1221.713, 15900.560
1222.195, 15886.060
1222.677, 15873.660
1223.159, 15876.920
1223.641, 15909.310
1224.123, 15949.450
1224.605, 15960.470
1225.088, 15956.410
1225.570, 15962.840
1226.052, 15998.900
1226.534, 15994.840
1227.016, 15980.735
1227.498, 16002.207
1227.980, 16015.043
1228.462, 16019.707
1228.944, 15991.724
1229.427, 16005.901
1229.909, 16003.182
1230.391, 15999.768
1230.873, 16019.875
1231.355, 15996.640
1231.837, 16016.375
1232.319, 16018.957
1232.801, 16029.390
1233.284, 16022.826
1233.766, 16021.510
1234.248, 16022.810
1234.730, 16047.210
1235.212, 16059.110
1235.694, 16054.560
1236.176, 16047.850
1236.658, 16047.960
1237.141, 16053.210
1237.623, 16064.840
1238.105, 16079.410
1238.587, 16088.520
1239.069, 16092.670
1239.551, 16084.270
1240.033, 16060.140
1240.515, 16043.930
1240.997, 16073.360
1241.479, 16107.180
1241.962, 16097.440
1242.444, 16057.840
1242.926, 16039.260
1243.408, 16049.540
1243.890, 16050.220
1244.372, 16035.240
1244.854, 16029.060
1245.336, 16066.890
1245.819, 16111.770
1246.301, 16130.410
1246.783, 16126.630
1247.265, 16125.040
1247.747, 16124.730
1248.229, 16130.250
1248.711, 16142.800
1249.193, 16152.700
1249.676, 16140.120
1250.158, 16131.560
1250.640, 16157.900
1251.122, 16206.200
1251.604, 16229.360
1252.086, 16227.380
1252.568, 16240.590
1253.050, 16279.340
1253.532, 16310.650
1254.015, 16325.490
1254.497, 16306.600
1254.979, 16212.540
1255.461, 16081.350
1255.943, 16039.720
1256.425, 16080.370
1256.907, 16115.390
1257.389, 16124.960
1257.871, 16128.880
1258.354, 16132.940
1258.836, 16141.870
1259.318, 16159.620
1259.800, 16182.420
1260.282, 16169.710
1260.764, 16143.850
1261.246, 16112.971
1261.728, 16142.355
1262.211, 16157.104
1262.693, 16158.018
1263.175, 16103.629
1263.657, 16120.653
1264.139, 16109.058
1264.621, 16096.289
1265.103, 16123.362
1265.585, 16103.580
1266.068, 16131.520
1266.550, 16152.250
1267.032, 16134.980
1267.514, 16119.070
1267.996, 16119.650
1268.478, 16133.090
1268.960, 16150.900
1269.442, 16173.500
1269.924, 16205.960
1270.407, 16257.860
1270.889, 16282.540
1271.371, 16254.250
1271.853, 16243.200
1272.335, 16293.580
1272.817, 16367.170
1273.299, 16390.900
1273.781, 16383.540
1274.264, 16369.840
1274.746, 16325.990
1275.228, 16293.183
1275.710, 16332.727
1276.192, 16354.709
1276.674, 16360.071
1277.156, 16299.039
1277.638, 16323.742
1278.120, 16314.086
1278.603, 16321.440
1279.085, 16312.740
1279.567, 16316.670
1280.049, 16335.460
1280.531, 16349.120
1281.013, 16341.750
1281.495, 16332.920
1281.977, 16353.190
1282.459, 16377.010
1282.942, 16365.420
1283.424, 16311.930
1283.906, 16290.670
1284.388, 16300.960
1284.870, 16322.770
1285.352, 16349.460
1285.834, 16378.470
1286.316, 16411.590
1286.799, 16442.750
##END=



