##NAMES=Thorianite
##RRUFFID=R130003
##IDEAL CHEMISTRY=ThO_2_
##LOCALITY=Millar's mine, Tory Hill, Monmouth Township, Haliburton County, Ontario, Canada
##OWNER=RRUFF
##SOURCE=Don Doell
##DESCRIPTION=Broken black cubes
##STATUS=The identification of this mineral has been confirmed by X-ray diffraction.
##URL=rruff.info/R130003
138.8073, 217.3029
139.2895, 215.7094
139.7716, 213.2386
140.2537, 210.8771
140.7358, 208.8051
141.2179, 207.0200
141.7000, 205.6910
142.1821, 204.7802
142.6643, 203.7531
143.1464, 202.3579
143.6285, 200.6642
144.1106, 198.8630
144.5927, 196.7653
145.0748, 194.8694
145.5570, 193.7023
146.0391, 193.2617
146.5212, 192.8205
147.0033, 191.5898
147.4854, 189.4424
147.9675, 187.7366
148.4497, 187.1355
148.9318, 186.8026
149.4139, 186.3751
149.8960, 185.7634
150.3781, 184.9830
150.8602, 184.0623
151.3424, 182.9859
151.8245, 181.7603
152.3066, 180.1179
152.7887, 178.5009
153.2708, 177.2699
153.7529, 176.5626
154.2351, 176.2166
154.7172, 175.8413
155.1993, 175.6524
155.6814, 175.1412
156.1635, 173.9501
156.6456, 172.5252
157.1278, 171.4503
157.6099, 171.0336
158.0920, 171.0807
158.5741, 170.7612
159.0562, 169.7380
159.5383, 168.7816
160.0205, 168.1573
160.5026, 167.7460
160.9847, 167.2746
161.4668, 166.6009
161.9489, 165.7322
162.4310, 164.7825
162.9131, 163.7330
163.3953, 162.6345
163.8774, 161.2835
164.3595, 159.7466
164.8416, 158.7643
165.3237, 159.1700
165.8058, 160.3935
166.2880, 161.0685
166.7701, 160.8215
167.2522, 160.1553
167.7343, 159.5939
168.2164, 159.1520
168.6985, 158.7502
169.1807, 158.3165
169.6628, 157.9023
170.1449, 157.5899
170.6270, 157.4668
171.1091, 157.4330
171.5912, 157.2907
172.0734, 157.1208
172.5555, 156.6561
173.0376, 155.6095
173.5197, 154.2898
174.0018, 153.1173
174.4839, 152.3305
174.9661, 151.8969
175.4482, 151.6434
175.9303, 151.7325
176.4124, 151.8379
176.8945, 151.9844
177.3766, 152.0804
177.8588, 151.9731
178.3409, 151.5295
178.8230, 150.7453
179.3051, 150.0113
179.7872, 149.2626
180.2693, 148.6238
180.7515, 148.1763
181.2336, 147.8802
181.7157, 147.6336
182.1978, 147.3409
182.6799, 146.9823
183.1620, 146.7908
183.6441, 146.8972
184.1263, 147.0132
184.6084, 147.0149
185.0905, 146.8937
185.5726, 146.6871
186.0547, 146.4140
186.5368, 146.0604
187.0190, 145.7812
187.5011, 145.8589
187.9832, 145.8175
188.4653, 145.1090
188.9474, 143.7148
189.4296, 142.3948
189.9117, 141.9951
190.3938, 142.4963
190.8759, 142.7738
191.3580, 142.3846
191.8401, 141.8649
192.3223, 141.9520
192.8044, 142.8413
193.2865, 143.7449
193.7686, 143.8332
194.2507, 143.3079
194.7328, 142.6356
195.2150, 141.7376
195.6971, 140.8194
196.1792, 140.3438
196.6613, 140.5066
197.1434, 140.7700
197.6255, 140.7914
198.1077, 140.6067
198.5898, 140.2749
199.0719, 139.6900
199.5540, 138.9457
200.0361, 138.4706
200.5182, 138.4174
201.0004, 138.4513
201.4825, 138.3935
201.9646, 138.2698
202.4467, 138.1548
202.9288, 138.1707
203.4109, 138.2958
203.8930, 138.1212
204.3752, 137.2480
204.8573, 136.4829
205.3394, 136.1553
205.8215, 136.1876
206.3036, 136.3598
206.7857, 136.5447
207.2679, 136.7544
207.7500, 136.7433
208.2321, 136.1389
208.7142, 135.6437
209.1963, 135.6114
209.6784, 135.9086
210.1606, 136.1245
210.6427, 135.8336
211.1248, 134.9231
211.6069, 134.5388
212.0890, 135.2265
212.5711, 135.8795
213.0533, 136.0253
213.5354, 135.7200
214.0175, 135.2980
214.4996, 135.0573
214.9817, 135.0232
215.4638, 135.0095
215.9460, 135.0661
216.4281, 135.0955
216.9102, 135.1162
217.3923, 135.0892
217.8744, 134.8572
218.3565, 134.1994
218.8387, 133.0212
219.3208, 132.4814
219.8029, 133.0477
220.2850, 133.7866
220.7671, 134.1696
221.2492, 134.1697
221.7314, 134.0098
222.2135, 133.8615
222.6956, 133.7244
223.1777, 133.5631
223.6598, 133.4600
224.1419, 133.2746
224.6240, 132.8172
225.1062, 132.0976
225.5883, 131.4325
226.0704, 131.0939
226.5525, 131.0628
227.0346, 131.0423
227.5167, 131.0441
227.9989, 131.0324
228.4810, 130.9683
228.9631, 130.8494
229.4452, 130.7131
229.9273, 130.5790
230.4094, 130.4490
230.8916, 130.3265
231.3737, 130.1398
231.8558, 130.0016
232.3379, 130.1168
232.8200, 130.5354
233.3021, 130.8541
233.7843, 130.7098
234.2664, 130.3134
234.7485, 129.9608
235.2306, 129.6716
235.7127, 129.5040
236.1948, 129.5703
236.6770, 129.9174
237.1591, 130.3090
237.6412, 130.7519
238.1233, 131.1336
238.6054, 131.3025
239.0875, 131.1786
239.5697, 130.8700
240.0518, 130.5285
240.5339, 130.1384
241.0160, 129.7612
241.4981, 129.3651
241.9802, 129.0149
242.4624, 128.8099
242.9445, 128.8139
243.4266, 128.8832
243.9087, 128.7443
244.3908, 128.2973
244.8729, 127.9142
245.3550, 127.6811
245.8372, 127.5566
246.3193, 127.5990
246.8014, 127.8465
247.2835, 128.0387
247.7656, 127.6327
248.2477, 126.2502
248.7299, 125.1790
249.2120, 124.7288
249.6941, 124.5835
250.1762, 124.5886
250.6583, 124.6849
251.1404, 124.7631
251.6226, 124.6530
252.1047, 124.3607
252.5868, 123.8419
253.0689, 122.8115
253.5510, 121.7751
254.0331, 121.0371
254.5153, 120.6939
254.9974, 120.7054
255.4795, 121.1166
255.9616, 122.4055
256.4437, 123.0203
256.9258, 122.6900
257.4080, 121.9979
257.8901, 121.1527
258.3722, 120.2763
258.8543, 119.5671
259.3364, 119.3208
259.8185, 119.7416
260.3007, 120.1361
260.7828, 120.7424
261.2649, 121.1565
261.7470, 120.9961
262.2291, 120.2999
262.7112, 119.5044
263.1934, 119.1217
263.6755, 119.3072
264.1576, 119.3527
264.6397, 119.2370
265.1218, 119.0301
265.6039, 118.6932
266.0861, 118.2741
266.5682, 117.9396
267.0503, 117.8945
267.5324, 118.2439
268.0145, 118.1689
268.4966, 117.2683
268.9788, 116.3980
269.4609, 115.9721
269.9430, 115.9670
270.4251, 116.1600
270.9072, 116.3969
271.3893, 116.6816
271.8715, 116.8339
272.3536, 116.8996
272.8357, 116.8223
273.3178, 116.4611
273.7999, 115.9195
274.2820, 115.4723
274.7642, 115.3190
275.2463, 115.4296
275.7284, 115.4379
276.2105, 115.3153
276.6926, 115.1494
277.1747, 114.9151
277.6568, 114.6576
278.1389, 114.4912
278.6211, 114.4972
279.1032, 114.6136
279.5853, 114.5644
280.0674, 114.2629
280.5495, 113.9363
281.0316, 113.6157
281.5138, 113.3112
281.9959, 113.0196
282.4780, 112.7267
282.9601, 112.4879
283.4422, 112.4688
283.9243, 112.7094
284.4065, 113.0449
284.8886, 113.7396
285.3707, 114.4340
285.8528, 114.4698
286.3349, 113.5698
286.8170, 112.3329
287.2992, 111.8140
287.7813, 112.2383
288.2634, 112.5419
288.7455, 112.4921
289.2276, 112.2639
289.7097, 112.0514
290.1919, 111.8973
290.6740, 111.7812
291.1561, 111.7166
291.6382, 111.7319
292.1203, 111.5462
292.6024, 110.9414
293.0846, 110.2300
293.5667, 109.6734
294.0488, 109.3068
294.5309, 109.1511
295.0130, 109.3463
295.4951, 109.8808
295.9773, 109.9881
296.4594, 109.1952
296.9415, 108.2878
297.4236, 107.8940
297.9057, 108.0147
298.3878, 108.2678
298.8700, 108.4138
299.3521, 108.4666
299.8342, 108.5491
300.3163, 108.8179
300.7984, 108.9744
301.2805, 108.7894
301.7627, 108.3181
302.2448, 107.7756
302.7269, 107.1700
303.2090, 106.6568
303.6911, 106.6731
304.1732, 107.5471
304.6554, 108.3612
305.1375, 108.7658
305.6196, 108.8048
306.1017, 108.5433
306.5838, 107.9403
307.0659, 107.1686
307.5481, 106.5181
308.0302, 105.9180
308.5123, 105.6019
308.9944, 105.8756
309.4765, 106.4367
309.9586, 106.7884
310.4408, 106.8107
310.9229, 106.5737
311.4050, 106.0251
311.8871, 105.1342
312.3692, 104.5481
312.8513, 104.5317
313.3335, 104.8225
313.8156, 105.1738
314.2977, 105.5560
314.7798, 105.8715
315.2619, 106.0692
315.7440, 106.1281
316.2262, 105.9159
316.7083, 105.0801
317.1904, 104.2096
317.6725, 103.8545
318.1546, 103.9989
318.6367, 104.1814
319.1188, 104.0783
319.6010, 103.7651
320.0831, 103.6277
320.5652, 103.8737
321.0473, 104.0837
321.5294, 103.9507
322.0115, 103.5706
322.4937, 103.2874
322.9758, 103.2790
323.4579, 103.4467
323.9400, 103.5513
324.4221, 103.6296
324.9042, 103.5927
325.3864, 103.3461
325.8685, 102.9726
326.3506, 102.5907
326.8327, 102.2128
327.3148, 101.9292
327.7969, 101.9199
328.2791, 102.2124
328.7612, 102.5340
329.2433, 102.9757
329.7254, 103.3557
330.2075, 103.4197
330.6896, 103.1239
331.1718, 102.7047
331.6539, 102.4095
332.1360, 102.2498
332.6181, 101.9136
333.1002, 101.0231
333.5823, 100.2339
334.0645, 100.1828
334.5466, 100.7933
335.0287, 101.3368
335.5108, 101.2679
335.9929, 100.6892
336.4750, 100.4139
336.9572, 100.7500
337.4393, 101.0261
337.9214, 100.9350
338.4035, 100.5671
338.8856, 100.0835
339.3677, 99.50523
339.8499, 98.97968
340.3320, 98.97739
340.8141, 99.87001
341.2962, 100.5294
341.7783, 100.6382
342.2604, 100.4347
342.7426, 100.1893
343.2247, 99.97970
343.7068, 99.80191
344.1889, 99.64725
344.6710, 99.50568
345.1531, 99.43973
345.6353, 99.54021
346.1174, 99.65515
346.5995, 99.63968
347.0816, 99.49902
347.5637, 99.37888
348.0458, 99.43441
348.5280, 99.68160
349.0101, 99.70129
349.4922, 99.23739
349.9743, 98.84367
350.4564, 98.75010
350.9385, 98.91507
351.4207, 99.26266
351.9028, 99.78342
352.3849, 100.3749
352.8670, 100.5863
353.3491, 100.0065
353.8312, 99.55893
354.3134, 99.48864
354.7955, 99.55553
355.2776, 99.45396
355.7597, 99.08165
356.2418, 98.59692
356.7239, 98.25933
357.2061, 98.09641
357.6882, 98.05158
358.1703, 98.26497
358.6524, 98.48020
359.1345, 98.51218
359.6166, 98.35446
360.0987, 98.11234
360.5808, 97.86521
361.0630, 97.59200
361.5451, 97.52530
362.0272, 97.84886
362.5093, 98.17284
362.9914, 98.42453
363.4735, 98.57715
363.9557, 98.56746
364.4378, 98.33752
364.9199, 97.97739
365.4020, 97.88299
365.8841, 98.35851
366.3662, 98.68931
366.8484, 98.74699
367.3305, 98.65212
367.8126, 98.50098
368.2947, 98.33149
368.7768, 98.16122
369.2589, 98.01515
369.7411, 97.89350
370.2232, 97.79854
370.7053, 97.87008
371.1874, 97.85091
371.6695, 97.41411
372.1516, 96.68977
372.6338, 96.21457
373.1159, 96.61446
373.5980, 97.84599
374.0801, 98.43140
374.5622, 97.75647
375.0443, 97.16251
375.5265, 97.18847
376.0086, 97.55906
376.4907, 97.86088
376.9728, 97.91528
377.4549, 97.73830
377.9370, 97.23338
378.4192, 96.09596
378.9013, 95.50961
379.3834, 96.43059
379.8655, 97.63984
380.3476, 98.16936
380.8297, 97.83069
381.3119, 97.19369
381.7940, 96.73148
382.2761, 96.44384
382.7582, 96.40716
383.2403, 96.79545
383.7224, 97.25461
384.2046, 97.61073
384.6867, 97.84663
385.1688, 97.91903
385.6509, 97.56532
386.1330, 97.07102
386.6151, 97.23722
387.0973, 98.30569
387.5794, 99.15716
388.0615, 98.90102
388.5436, 98.08752
389.0257, 97.44701
389.5078, 97.09083
389.9900, 96.97902
390.4721, 97.22323
390.9542, 97.76193
391.4363, 98.07115
391.9184, 97.85376
392.4005, 97.48975
392.8827, 97.55824
393.3648, 98.09299
393.8469, 98.53419
394.3290, 98.57684
394.8111, 98.41870
395.2932, 98.37784
395.7754, 98.50727
396.2575, 98.66879
396.7396, 98.74094
397.2217, 98.73137
397.7038, 98.74903
398.1859, 98.85350
398.6681, 98.93906
399.1501, 98.85482
399.6323, 98.67274
400.1144, 98.69448
400.5965, 99.12951
401.0786, 99.76997
401.5607, 99.96645
402.0428, 99.32323
402.5250, 98.99783
403.0071, 99.57684
403.4892, 100.4003
403.9713, 100.6135
404.4534, 100.0500
404.9355, 99.29710
405.4177, 99.03606
405.8998, 99.36572
406.3819, 99.75751
406.8640, 100.4899
407.3461, 101.0146
407.8282, 100.8284
408.3104, 100.2009
408.7925, 99.82868
409.2746, 100.1646
409.7567, 101.0505
410.2388, 101.7645
410.7209, 102.3739
411.2031, 102.6874
411.6852, 102.5240
412.1673, 102.1560
412.6494, 101.7793
413.1315, 101.4696
413.6136, 101.2822
414.0958, 101.3270
414.5779, 101.6883
415.0600, 101.9448
415.5421, 101.9806
416.0242, 102.0160
416.5063, 102.1279
416.9885, 102.3096
417.4706, 102.5099
417.9527, 102.6691
418.4348, 102.8495
418.9169, 103.3293
419.3990, 104.3417
419.8812, 105.1255
420.3633, 105.2791
420.8454, 105.2005
421.3275, 105.2465
421.8096, 105.5043
422.2917, 105.8064
422.7739, 105.8987
423.2560, 105.8037
423.7381, 106.0581
424.2202, 107.0541
424.7023, 107.9766
425.1844, 108.0522
425.6666, 107.5072
426.1487, 107.1684
426.6308, 107.6430
427.1129, 108.4040
427.5950, 108.5426
428.0771, 108.0086
428.5593, 107.7021
429.0414, 108.2876
429.5235, 109.3167
430.0056, 109.7415
430.4877, 109.2739
430.9698, 108.8537
431.4520, 109.0427
431.9341, 109.5923
432.4162, 109.9841
432.8983, 110.0719
433.3804, 110.1115
433.8625, 110.4388
434.3447, 111.1121
434.8268, 111.5558
435.3089, 111.5741
435.7910, 111.5076
436.2731, 111.5264
436.7552, 111.6481
437.2374, 111.9073
437.7195, 112.3552
438.2016, 112.8928
438.6837, 113.1315
439.1658, 112.6541
439.6479, 112.4115
440.1301, 112.5679
440.6122, 112.9292
441.0943, 113.3579
441.5764, 113.8034
442.0585, 114.2322
442.5406, 114.5999
443.0227, 114.8991
443.5049, 115.2011
443.9870, 115.6140
444.4691, 115.9156
444.9512, 115.9900
445.4333, 115.9131
445.9154, 115.7671
446.3976, 115.5718
446.8797, 115.4483
447.3618, 115.7647
447.8439, 116.7955
448.3260, 117.4429
448.8081, 117.0794
449.2903, 116.5796
449.7724, 116.4884
450.2545, 116.8302
450.7366, 117.2881
451.2187, 117.7016
451.7008, 118.0464
452.1830, 118.1952
452.6651, 118.1109
453.1472, 117.9150
453.6293, 117.5000
454.1114, 117.0607
454.5935, 116.9404
455.0757, 117.3872
455.5578, 117.8225
456.0399, 117.7361
456.5220, 117.2181
457.0041, 116.6372
457.4862, 116.0617
457.9684, 115.5310
458.4505, 115.0691
458.9326, 114.6632
459.4147, 114.4577
459.8968, 114.6467
460.3789, 114.9279
460.8611, 115.0657
461.3432, 115.0516
461.8253, 114.9334
462.3074, 114.7159
462.7895, 114.4411
463.2716, 114.2816
463.7538, 114.4158
464.2359, 114.4247
464.7180, 114.1831
465.2001, 113.8352
465.6822, 113.5118
466.1643, 113.2446
466.6465, 113.0198
467.1286, 112.8380
467.6107, 112.7149
468.0928, 112.4609
468.5749, 111.9090
469.0570, 111.4013
469.5392, 111.0742
470.0213, 110.8373
470.5034, 110.5362
470.9855, 110.0985
471.4676, 109.6339
471.9497, 109.4086
472.4319, 109.5505
472.9140, 109.3642
473.3961, 108.2657
473.8782, 107.2300
474.3603, 106.9852
474.8424, 107.3606
475.3246, 107.5451
475.8067, 106.8797
476.2888, 105.7648
476.7709, 105.0840
477.2530, 104.8945
477.7351, 104.8035
478.2173, 104.6907
478.6994, 104.5365
479.1815, 104.3375
479.6636, 104.1204
480.1457, 103.7615
480.6278, 103.0229
481.1100, 102.1443
481.5920, 101.5585
482.0742, 101.3439
482.5563, 101.3699
483.0384, 101.6350
483.5205, 102.1116
484.0026, 102.0989
484.4847, 101.2527
484.9669, 100.3242
485.4490, 99.46125
485.9311, 98.75312
486.4132, 98.40811
486.8953, 98.49763
487.3774, 98.73857
487.8596, 98.66298
488.3417, 98.15395
488.8238, 97.63339
489.3059, 97.10267
489.7880, 96.56307
490.2701, 95.91829
490.7523, 95.27029
491.2344, 94.85140
491.7165, 94.82558
492.1986, 95.05703
492.6807, 95.17928
493.1628, 95.16619
493.6450, 95.11608
494.1271, 95.03711
494.6092, 94.93647
495.0913, 94.80281
495.5734, 94.64281
496.0555, 94.49940
496.5377, 94.48122
497.0198, 94.49688
497.5019, 94.26881
497.9840, 93.75173
498.4661, 93.17136
498.9482, 92.57851
499.4304, 92.02518
499.9125, 91.60050
500.3946, 91.31328
500.8767, 91.14040
501.3588, 91.12156
501.8409, 91.19441
502.3231, 91.30267
502.8052, 91.43759
503.2873, 91.42018
503.7694, 91.03944
504.2515, 90.27563
504.7336, 89.67612
505.2158, 89.18990
505.6979, 88.90241
506.1800, 89.05540
506.6621, 89.36316
507.1442, 89.32484
507.6263, 88.77759
508.1085, 88.11011
508.5906, 87.96680
509.0727, 88.56930
509.5548, 88.89219
510.0369, 88.74638
510.5190, 88.50687
511.0012, 88.23971
511.4833, 87.99190
511.9654, 87.83667
512.4475, 87.82597
512.9296, 87.87328
513.4117, 87.84290
513.8939, 87.73953
514.3760, 87.50736
514.8581, 86.98094
515.3402, 86.47701
515.8223, 86.25945
516.3044, 86.30341
516.7866, 86.42368
517.2687, 86.68249
517.7508, 86.89597
518.2329, 86.76295
518.7150, 86.30683
519.1971, 85.86588
519.6793, 85.57332
520.1614, 85.42181
520.6435, 85.46281
521.1256, 85.85026
521.6077, 85.95341
522.0898, 85.38847
522.5720, 84.69077
523.0541, 84.33965
523.5362, 84.33876
524.0183, 84.40269
524.5004, 84.31306
524.9825, 84.13710
525.4647, 84.23780
525.9468, 84.92262
526.4289, 85.44890
526.9110, 85.79100
527.3931, 85.93570
527.8752, 85.81339
528.3574, 85.45492
528.8395, 85.01908
529.3216, 84.56577
529.8037, 84.14356
530.2858, 84.12428
530.7679, 84.75350
531.2501, 85.21473
531.7322, 84.81065
532.2143, 84.22420
532.6964, 84.25311
533.1785, 85.10605
533.6606, 85.93208
534.1428, 86.14970
534.6249, 85.95031
535.1070, 85.59419
535.5891, 85.07371
536.0712, 85.00720
536.5533, 86.19537
537.0355, 88.26311
537.5176, 88.91949
537.9997, 86.73380
538.4818, 85.02213
538.9639, 85.03586
539.4460, 85.88905
539.9282, 86.55559
540.4103, 86.79176
540.8924, 86.84286
541.3745, 86.95765
541.8566, 87.13987
542.3387, 87.25487
542.8209, 87.15271
543.3029, 87.16460
543.7850, 87.53511
544.2672, 87.96726
544.7493, 88.01973
545.2314, 87.60223
545.7135, 87.23824
546.1956, 87.66975
546.6777, 88.80135
547.1599, 89.39882
547.6420, 89.11234
548.1241, 88.89544
548.6062, 89.50171
549.0883, 90.53725
549.5704, 91.39207
550.0526, 91.91152
550.5347, 92.34970
551.0168, 92.92319
551.4989, 93.52187
551.9810, 93.89746
552.4631, 93.99546
552.9453, 93.97011
553.4274, 93.94039
553.9095, 93.90646
554.3916, 93.96410
554.8737, 94.14987
555.3558, 94.36765
555.8380, 94.64453
556.3201, 94.91565
556.8022, 95.06189
557.2843, 95.07216
557.7664, 95.10913
558.2485, 95.44559
558.7307, 96.10889
559.2128, 96.22440
559.6949, 95.28596
560.1770, 94.52101
560.6591, 94.47620
561.1412, 94.75209
561.6234, 94.81445
562.1055, 94.50269
562.5876, 94.27742
563.0697, 94.66074
563.5518, 95.46246
564.0339, 96.00156
564.5161, 96.14848
564.9982, 96.32502
565.4803, 96.96823
565.9624, 97.88172
566.4445, 98.23019
566.9266, 97.56878
567.4088, 96.98048
567.8909, 96.81803
568.3730, 96.93984
568.8551, 97.28890
569.3372, 97.79334
569.8193, 98.13928
570.3015, 97.97155
570.7836, 97.33742
571.2657, 97.17763
571.7478, 98.09313
572.2299, 98.67815
572.7120, 98.40263
573.1942, 97.91248
573.6763, 97.85250
574.1584, 98.29602
574.6405, 98.79234
575.1226, 98.93356
575.6047, 98.79927
576.0869, 98.68150
576.5690, 98.54326
577.0511, 98.58652
577.5332, 99.04137
578.0153, 99.66005
578.4974, 100.0480
578.9796, 100.1728
579.4617, 100.1850
579.9438, 100.0656
580.4259, 99.90822
580.9080, 99.79066
581.3901, 99.73219
581.8723, 99.79516
582.3544, 100.0482
582.8365, 100.3960
583.3186, 100.5156
583.8007, 100.3110
584.2828, 100.0084
584.7650, 99.48593
585.2471, 98.97813
585.7292, 98.52995
586.2113, 98.22709
586.6934, 98.29910
587.1755, 99.00155
587.6577, 99.95595
588.1398, 100.2144
588.6219, 99.66200
589.1040, 99.19859
589.5861, 99.05716
590.0682, 99.05679
590.5504, 99.00484
591.0325, 98.92220
591.5146, 98.95543
591.9967, 99.33052
592.4788, 99.68542
592.9609, 99.58617
593.4431, 99.20066
593.9252, 99.03857
594.4073, 99.28808
594.8894, 99.79917
595.3715, 100.4317
595.8536, 101.3422
596.3358, 101.6363
596.8179, 100.6960
597.3000, 99.91989
597.7821, 99.95112
598.2642, 100.3982
598.7463, 100.7018
599.2285, 100.6664
599.7106, 100.4220
600.1927, 100.0438
600.6748, 99.54131
601.1569, 99.22323
601.6390, 99.08794
602.1212, 99.16988
602.6033, 99.62118
603.0854, 100.2670
603.5675, 100.8585
604.0496, 101.3833
604.5317, 101.8093
605.0139, 102.1963
605.4960, 102.4444
605.9781, 102.2736
606.4602, 101.7127
606.9423, 101.2801
607.4244, 101.3699
607.9066, 101.8663
608.3887, 102.2499
608.8708, 102.4897
609.3529, 102.6497
609.8350, 102.6257
610.3171, 102.6130
610.7993, 102.8356
611.2814, 103.2106
611.7635, 103.3971
612.2456, 103.0833
612.7277, 102.6099
613.2098, 102.7971
613.6920, 103.7199
614.1741, 104.4157
614.6562, 104.5617
615.1383, 104.5242
615.6204, 104.6309
616.1025, 104.8677
616.5847, 105.1849
617.0668, 105.7062
617.5489, 106.1714
618.0310, 106.3912
618.5131, 106.4376
618.9952, 106.4246
619.4774, 106.3927
619.9595, 106.4185
620.4416, 106.6057
620.9237, 106.9695
621.4058, 107.2779
621.8879, 107.6679
622.3701, 107.8201
622.8522, 107.3737
623.3343, 106.8284
623.8164, 106.7552
624.2985, 107.2376
624.7806, 107.8075
625.2628, 108.0864
625.7448, 108.1626
626.2269, 108.2468
626.7090, 108.3389
627.1912, 108.5280
627.6733, 108.9789
628.1554, 109.4337
628.6375, 109.2623
629.1196, 108.2538
629.6017, 107.7228
630.0839, 108.2258
630.5660, 108.9388
631.0481, 109.3501
631.5302, 109.4980
632.0123, 109.5848
632.4944, 109.7024
632.9766, 109.8097
633.4587, 109.8371
633.9408, 109.7776
634.4229, 109.6560
634.9050, 109.2744
635.3871, 109.1020
635.8693, 109.5976
636.3514, 110.3264
636.8335, 110.5703
637.3156, 110.0679
637.7977, 109.4946
638.2798, 109.4280
638.7620, 109.5942
639.2441, 109.4411
639.7262, 108.9154
640.2083, 108.3267
640.6904, 107.8467
641.1725, 107.4855
641.6547, 107.2758
642.1368, 107.3176
642.6189, 107.3734
643.1010, 107.5907
643.5831, 107.6911
644.0652, 107.2873
644.5474, 106.6249
645.0295, 106.3949
645.5116, 107.0373
645.9937, 107.9052
646.4758, 107.8626
646.9579, 106.9183
647.4401, 106.0951
647.9222, 105.5352
648.4043, 105.1406
648.8864, 104.8652
649.3685, 104.7015
649.8506, 104.6463
650.3328, 104.8522
650.8149, 104.9313
651.2970, 104.6883
651.7791, 104.2605
652.2612, 103.7270
652.7433, 103.1517
653.2255, 102.7289
653.7076, 102.6253
654.1897, 102.7369
654.6718, 102.6525
655.1539, 102.2280
655.6360, 101.9559
656.1182, 102.3151
656.6003, 102.4801
657.0824, 101.7005
657.5645, 100.3165
658.0466, 99.42268
658.5287, 99.64012
659.0109, 100.1546
659.4930, 100.3231
659.9751, 100.1702
660.4572, 99.68921
660.9393, 98.86977
661.4214, 98.00349
661.9036, 97.30142
662.3857, 96.77636
662.8678, 96.57214
663.3499, 97.16569
663.8320, 97.45021
664.3141, 97.17899
664.7963, 96.68333
665.2784, 96.15749
665.7605, 95.65284
666.2426, 95.19467
666.7247, 94.79091
667.2068, 94.45113
667.6890, 94.28309
668.1711, 94.27387
668.6532, 93.88789
669.1353, 92.84032
669.6174, 91.79688
670.0995, 91.47697
670.5817, 91.79694
671.0638, 91.82899
671.5459, 91.40555
672.0280, 90.88107
672.5101, 90.25305
672.9922, 89.65028
673.4744, 89.22220
673.9565, 88.97359
674.4386, 88.80341
674.9207, 88.64696
675.4028, 88.48859
675.8849, 88.30997
676.3671, 88.15955
676.8492, 87.75248
677.3313, 86.79434
677.8134, 85.82825
678.2955, 85.23336
678.7776, 84.97529
679.2598, 84.96378
679.7419, 85.44773
680.2240, 85.82834
680.7061, 85.76524
681.1882, 85.36714
681.6703, 84.66151
682.1525, 83.72697
682.6346, 82.95801
683.1167, 82.68799
683.5988, 82.84191
684.0809, 83.11074
684.5630, 83.80766
685.0452, 83.93242
685.5273, 82.69352
686.0094, 81.42422
686.4915, 80.93008
686.9736, 81.05165
687.4557, 81.21954
687.9379, 81.31340
688.4200, 81.22197
688.9021, 80.69109
689.3842, 79.92394
689.8663, 79.42709
690.3484, 79.28497
690.8306, 79.20857
691.3127, 78.96650
691.7948, 78.60282
692.2769, 78.34234
692.7590, 78.37067
693.2411, 78.20089
693.7233, 77.65603
694.2054, 77.06493
694.6875, 76.54571
695.1696, 76.14905
695.6517, 76.00485
696.1339, 76.27576
696.6160, 76.48549
697.0981, 75.91786
697.5802, 74.83278
698.0623, 74.19650
698.5444, 74.18127
699.0266, 74.24491
699.5087, 74.00234
699.9908, 73.54885
700.4729, 73.25381
700.9550, 73.31934
701.4371, 73.23367
701.9193, 72.80540
702.4014, 72.39500
702.8835, 72.28129
703.3656, 72.35099
703.8477, 72.29099
704.3298, 71.94747
704.8120, 71.62576
705.2941, 71.89412
705.7762, 72.55949
706.2583, 72.50169
706.7404, 71.47730
707.2225, 70.75665
707.7046, 71.25381
708.1867, 72.42023
708.6688, 72.86301
709.1509, 72.41987
709.6331, 71.71594
710.1152, 70.30473
710.5973, 69.11227
711.0794, 68.77883
711.5615, 69.03266
712.0436, 69.40706
712.5258, 69.72476
713.0079, 69.92226
713.4900, 69.93869
713.9721, 69.77503
714.4542, 69.38027
714.9363, 68.70757
715.4185, 68.10567
715.9006, 67.74456
716.3827, 67.53639
716.8648, 67.34053
717.3469, 67.15182
717.8290, 67.00587
718.3112, 66.90352
718.7933, 66.84795
719.2754, 66.99911
719.7575, 67.13240
720.2396, 66.79256
720.7217, 65.93721
721.2039, 65.19220
721.6860, 65.22711
722.1681, 65.85475
722.6502, 66.42374
723.1323, 66.97443
723.6144, 67.11331
724.0966, 66.52071
724.5787, 65.76028
725.0608, 65.59261
725.5429, 65.99786
726.0250, 65.99575
726.5071, 65.04567
726.9893, 64.26707
727.4714, 64.12425
727.9535, 64.32806
728.4356, 64.65113
728.9177, 64.99254
729.3998, 65.21355
729.8820, 65.20138
730.3641, 65.02327
730.8462, 64.83311
731.3283, 64.63316
731.8104, 64.30485
732.2925, 63.69931
732.7747, 63.26214
733.2568, 63.48969
733.7389, 64.22195
734.2210, 64.58686
734.7031, 64.38870
735.1852, 64.12643
735.6674, 63.69474
736.1495, 63.40096
736.6316, 63.70270
737.1137, 64.36266
737.5958, 64.68716
738.0779, 64.31827
738.5601, 63.62972
739.0422, 63.05558
739.5243, 62.61853
740.0064, 62.65965
740.4885, 63.36349
740.9706, 63.80882
741.4528, 63.38620
741.9349, 62.44797
742.4170, 61.72376
742.8991, 61.16660
743.3812, 60.94512
743.8633, 61.46416
744.3455, 61.91619
744.8276, 61.75030
745.3097, 61.28502
745.7918, 61.07302
746.2739, 61.25260
746.7560, 61.46139
747.2382, 61.31059
747.7203, 60.92366
748.2024, 60.68555
748.6845, 60.59952
749.1666, 60.50370
749.6487, 60.31532
750.1309, 60.17614
750.6130, 60.32650
751.0951, 60.79956
751.5772, 60.85308
752.0593, 59.98076
752.5414, 59.38021
753.0236, 59.43859
753.5057, 59.78682
753.9878, 60.25468
754.4699, 60.70066
754.9520, 60.78766
755.4341, 60.16525
755.9163, 59.43242
756.3984, 59.57861
756.8805, 60.37616
757.3626, 60.82720
757.8447, 60.76429
758.3268, 60.44312
758.8090, 59.96557
759.2911, 59.44143
759.7732, 59.24755
760.2553, 59.68637
760.7374, 59.90747
761.2195, 59.73014
761.7017, 59.54331
762.1838, 59.56263
762.6659, 59.68347
763.1480, 59.71991
763.6301, 59.61872
764.1122, 59.49635
764.5944, 59.40000
765.0765, 59.35708
765.5586, 59.49241
766.0407, 59.75037
766.5228, 59.77734
767.0049, 59.42039
767.4871, 59.00161
767.9692, 58.96459
768.4513, 59.32882
768.9334, 59.55868
769.4155, 59.58806
769.8976, 59.58829
770.3798, 59.56974
770.8619, 59.55796
771.3440, 59.65937
771.8261, 59.81141
772.3082, 59.69990
772.7903, 58.91112
773.2725, 58.23658
773.7546, 58.35203
774.2367, 58.88607
774.7188, 59.37593
775.2009, 59.69776
775.6830, 59.67405
776.1652, 59.14241
776.6473, 58.40945
777.1294, 58.27447
777.6115, 58.86501
778.0936, 59.17690
778.5757, 58.99799
779.0579, 58.81469
779.5400, 58.98169
780.0221, 59.26812
780.5042, 59.24962
780.9863, 58.82920
781.4684, 58.53060
781.9506, 58.61692
782.4327, 58.72647
782.9148, 58.48467
783.3969, 58.15572
783.8790, 58.29457
784.3611, 58.98295
784.8433, 59.64018
785.3254, 59.67685
785.8075, 59.30873
786.2896, 59.23642
786.7717, 59.46756
787.2538, 59.43037
787.7360, 58.89345
788.2181, 58.33243
788.7002, 58.23828
789.1823, 58.53210
789.6644, 58.54473
790.1465, 57.83564
790.6286, 57.49229
791.1107, 57.98386
791.5928, 58.50474
792.0750, 58.35608
792.5571, 57.86193
793.0392, 57.84770
793.5213, 58.66491
794.0034, 59.50542
794.4855, 59.66750
794.9677, 59.36815
795.4498, 58.87541
795.9319, 58.26436
796.4140, 57.88929
796.8961, 57.90557
797.3782, 58.10646
797.8604, 58.22562
798.3425, 58.26353
798.8246, 58.19564
799.3067, 57.94435
799.7888, 57.72631
800.2709, 57.61323
800.7531, 57.53847
801.2352, 57.36920
801.7173, 57.17231
802.1994, 57.28263
802.6815, 58.06462
803.1636, 58.76559
803.6458, 58.97455
804.1279, 58.89756
804.6100, 58.64904
805.0921, 58.34229
805.5742, 58.25000
806.0563, 58.53215
806.5385, 58.94567
807.0206, 59.14029
807.5027, 59.11969
807.9848, 58.81094
808.4669, 58.08683
808.9490, 57.77569
809.4312, 58.49633
809.9133, 59.47124
810.3954, 59.43976
810.8775, 58.16651
811.3596, 57.43025
811.8417, 57.61108
812.3239, 57.83796
812.8060, 57.92839
813.2881, 57.92244
813.7702, 57.79263
814.2523, 57.59858
814.7344, 57.55696
815.2166, 57.87210
815.6987, 58.17490
816.1808, 57.89476
816.6629, 57.35733
817.1450, 57.43705
817.6271, 58.14317
818.1093, 58.57055
818.5914, 58.16704
819.0735, 57.40036
819.5556, 57.20182
820.0377, 57.67985
820.5198, 58.04945
821.0020, 58.32090
821.4841, 58.46494
821.9662, 58.35286
822.4483, 58.18877
822.9304, 58.24662
823.4125, 58.51635
823.8947, 58.63210
824.3768, 58.47699
824.8589, 58.20879
825.3410, 57.67201
825.8231, 57.20399
826.3052, 57.32338
826.7874, 57.90856
827.2695, 58.32091
827.7516, 58.18133
828.2337, 57.82559
828.7158, 57.70970
829.1979, 57.78677
829.6801, 57.86991
830.1622, 57.94222
830.6443, 58.03477
831.1264, 58.18650
831.6085, 58.29018
832.0906, 58.14127
832.5728, 57.68174
833.0549, 57.39442
833.5370, 57.33974
834.0191, 57.37783
834.5012, 57.52346
834.9833, 57.70611
835.4655, 57.95051
835.9476, 58.19957
836.4297, 58.20353
836.9118, 57.67202
837.3939, 57.22514
837.8760, 57.31600
838.3582, 57.59566
838.8403, 57.66099
839.3224, 57.52523
839.8045, 57.38673
840.2866, 57.33899
840.7687, 57.34210
841.2509, 57.35510
841.7330, 57.37412
842.2151, 57.36351
842.6972, 57.31828
843.1793, 57.32766
843.6614, 57.44523
844.1436, 57.56513
844.6257, 57.55067
845.1078, 57.40615
845.5899, 57.33690
846.0720, 57.35011
846.5541, 57.43093
847.0363, 57.69781
847.5184, 57.91603
848.0005, 57.99122
848.4826, 57.89508
848.9647, 57.51501
849.4468, 56.70857
849.9290, 56.13280
850.4111, 56.30753
850.8932, 56.75206
851.3753, 57.04469
851.8574, 57.18793
852.3395, 57.29886
852.8217, 57.40047
853.3038, 57.34401
853.7859, 56.90754
854.2680, 56.26745
854.7501, 56.00453
855.2322, 56.11774
855.7144, 56.28599
856.1965, 56.46272
856.6786, 56.62327
857.1607, 56.78960
857.6428, 56.89381
858.1249, 56.68550
858.6071, 55.81444
859.0892, 55.39643
859.5713, 55.78919
860.0534, 56.20287
860.5355, 56.36714
861.0176, 56.39785
861.4998, 56.52191
861.9819, 56.73917
862.4640, 56.63248
862.9461, 55.64112
863.4282, 54.69176
863.9103, 54.40566
864.3925, 54.56309
864.8746, 55.03844
865.3567, 55.66876
865.8388, 55.98936
866.3209, 55.70455
866.8030, 55.19315
867.2852, 55.03257
867.7673, 55.16435
868.2494, 55.28796
868.7315, 55.38605
869.2136, 55.50467
869.6957, 55.69761
870.1779, 55.79022
870.6600, 55.50227
871.1421, 54.82778
871.6242, 54.43712
872.1063, 54.52095
872.5884, 54.55268
873.0705, 54.45205
873.5526, 54.26997
874.0347, 54.03727
874.5168, 53.74560
874.9990, 53.31734
875.4811, 52.59674
875.9632, 52.19183
876.4453, 52.64339
876.9274, 53.17237
877.4095, 53.22767
877.8917, 52.94087
878.3738, 52.48342
878.8559, 51.96338
879.3380, 51.68256
879.8201, 51.98369
880.3022, 52.53319
880.7844, 52.85944
881.2665, 52.96315
881.7486, 52.76983
882.2307, 52.28948
882.7128, 51.85022
883.1949, 51.66325
883.6771, 51.63188
884.1592, 51.52929
884.6413, 51.31181
885.1234, 51.40702
885.6055, 52.06202
886.0876, 52.40243
886.5698, 51.95204
887.0519, 51.23538
887.5340, 50.78856
888.0161, 50.60444
888.4982, 50.53675
888.9803, 50.76479
889.4625, 50.85056
889.9446, 50.56457
890.4267, 50.25866
890.9088, 50.21314
891.3909, 50.32185
891.8730, 50.39029
892.3552, 50.37319
892.8373, 50.13723
893.3194, 49.22784
893.8015, 48.36719
894.2836, 48.59325
894.7657, 49.39733
895.2479, 49.63905
895.7300, 49.13141
896.2121, 48.48204
896.6942, 48.10987
897.1763, 47.98891
897.6584, 48.19544
898.1406, 48.67091
898.6227, 48.77646
899.1048, 48.42276
899.5869, 48.08508
900.0690, 47.98013
900.5511, 48.02342
901.0333, 48.10055
901.5154, 48.21341
901.9975, 48.33505
902.4796, 48.65096
902.9617, 48.62294
903.4438, 47.68792
903.9260, 46.83413
904.4081, 46.88136
904.8902, 47.50709
905.3723, 47.86898
905.8544, 47.77704
906.3365, 47.71100
906.8187, 47.94881
907.3008, 48.07299
907.7829, 47.70407
908.2650, 47.13322
908.7471, 46.73481
909.2292, 46.58276
909.7114, 46.58803
910.1935, 46.77903
910.6756, 46.97781
911.1577, 46.94407
911.6398, 46.81316
912.1219, 46.85216
912.6041, 47.05723
913.0862, 47.31882
913.5683, 47.58584
914.0504, 47.64612
914.5325, 47.05075
915.0146, 45.98549
915.4968, 45.55382
915.9789, 45.77454
916.4610, 46.14385
916.9431, 46.60498
917.4252, 46.85138
917.9073, 46.54830
918.3895, 45.90289
918.8716, 45.69621
919.3537, 46.17771
919.8358, 46.45951
920.3179, 46.49274
920.8000, 46.39025
921.2822, 46.02712
921.7643, 45.65826
922.2464, 45.59724
922.7285, 45.83465
923.2106, 46.04465
923.6927, 46.30134
924.1749, 46.36440
924.6570, 46.04396
925.1391, 45.61304
925.6212, 45.12745
926.1033, 44.74427
926.5854, 44.83949
927.0676, 45.54076
927.5497, 46.07027
928.0318, 45.64182
928.5139, 45.03782
928.9960, 45.10383
929.4781, 45.57288
929.9603, 45.97101
930.4424, 46.17810
930.9245, 46.14751
931.4066, 45.81767
931.8887, 45.42399
932.3708, 45.41435
932.8530, 45.66644
933.3351, 45.63115
933.8172, 45.29787
934.2993, 45.00183
934.7814, 44.86449
935.2635, 44.85309
935.7457, 44.95702
936.2278, 45.14090
936.7099, 45.18163
937.1920, 45.03584
937.6741, 44.92627
938.1563, 44.84998
938.6384, 44.89006
939.1205, 45.22730
939.6026, 45.59866
940.0847, 45.48760
940.5668, 44.77850
941.0490, 44.27381
941.5311, 44.02265
942.0132, 43.89845
942.4953, 43.83502
942.9774, 43.92903
943.4595, 44.48462
943.9417, 45.22574
944.4238, 45.39529
944.9059, 44.66905
945.3880, 44.05874
945.8701, 43.98933
946.3522, 44.07814
946.8344, 44.13517
947.3165, 44.16054
947.7986, 44.20861
948.2807, 44.25807
948.7628, 44.16003
949.2449, 43.74282
949.7271, 43.39085
950.2092, 43.72169
950.6913, 44.20988
951.1734, 43.81950
951.6555, 42.82287
952.1376, 42.37199
952.6198, 42.82146
953.1019, 43.41115
953.5840, 43.35144
954.0661, 42.99293
954.5482, 43.36161
955.0303, 44.28724
955.5124, 44.53429
955.9945, 43.93207
956.4766, 43.36937
956.9587, 43.33125
957.4409, 43.53779
957.9230, 43.53837
958.4051, 43.33819
958.8872, 43.25603
959.3693, 43.32673
959.8514, 43.37873
960.3336, 43.41874
960.8157, 43.31794
961.2978, 42.88330
961.7799, 42.29675
962.2620, 42.10530
962.7441, 42.54711
963.2263, 42.64083
963.7084, 41.87307
964.1905, 41.45701
964.6726, 42.02605
965.1547, 42.81273
965.6368, 43.19793
966.1190, 43.22380
966.6011, 43.16285
967.0832, 42.99134
967.5653, 42.85200
968.0474, 42.79329
968.5295, 42.75486
969.0117, 42.74489
969.4938, 42.71027
969.9759, 42.51390
970.4580, 42.18855
970.9401, 42.06393
971.4222, 42.47306
971.9044, 42.81374
972.3865, 42.53813
972.8686, 42.13414
973.3507, 42.25511
973.8328, 42.65841
974.3149, 42.58893
974.7971, 41.88259
975.2792, 41.34748
975.7613, 41.77802
976.2434, 42.55865
976.7255, 42.94612
977.2076, 43.02749
977.6898, 42.94598
978.1719, 42.74727
978.6540, 42.45837
979.1361, 42.09212
979.6182, 41.87947
980.1003, 42.27607
980.5825, 42.99737
981.0646, 42.95988
981.5467, 42.27282
982.0288, 41.77695
982.5109, 41.64070
982.9930, 41.93750
983.4752, 42.81875
983.9573, 43.66598
984.4394, 43.03487
984.9215, 40.90772
985.4036, 40.23079
985.8857, 41.29903
986.3679, 42.04715
986.8500, 41.84092
987.3321, 41.51020
987.8142, 41.76804
988.2963, 42.37951
988.7784, 42.58042
989.2606, 42.20150
989.7427, 42.01183
990.2248, 42.08485
990.7069, 42.20898
991.1890, 42.35505
991.6711, 42.48831
992.1533, 42.61279
992.6354, 42.70478
993.1175, 42.60712
993.5996, 41.98916
994.0817, 41.77787
994.5638, 42.41240
995.0460, 42.94489
995.5281, 42.89137
996.0102, 42.63700
996.4923, 42.64587
996.9744, 42.88294
997.4565, 42.91036
997.9387, 42.37838
998.4208, 42.07887
998.9029, 42.45051
999.3850, 42.86330
999.8671, 42.97464
1000.349, 42.84767
1000.831, 42.51610
1001.313, 42.03508
1001.796, 41.72033
1002.278, 41.74615
1002.760, 41.90244
1003.242, 42.32076
1003.724, 42.60438
1004.206, 42.13154
1004.688, 41.31681
1005.170, 41.04325
1005.653, 41.48709
1006.135, 42.00825
1006.617, 42.24424
1007.099, 42.33722
1007.581, 42.49037
1008.063, 42.54090
1008.545, 42.12984
1009.027, 41.41121
1009.509, 40.86172
1009.992, 40.65048
1010.474, 40.60621
1010.956, 40.57208
1011.438, 40.62737
1011.920, 41.02859
1012.402, 41.57341
1012.884, 41.68659
1013.366, 41.42285
1013.849, 41.42588
1014.331, 41.96736
1014.813, 42.49574
1015.295, 42.29347
1015.777, 41.69864
1016.259, 41.64246
1016.741, 41.97877
1017.223, 41.94007
1017.705, 41.45864
1018.188, 41.15844
1018.670, 41.36753
1019.152, 41.77270
1019.634, 41.94255
1020.116, 41.93504
1020.598, 42.07835
1021.080, 42.36041
1021.562, 42.44267
1022.044, 42.25756
1022.527, 42.02333
1023.009, 41.84947
1023.491, 41.78107
1023.973, 41.94613
1024.455, 42.31289
1024.937, 42.28624
1025.419, 41.80130
1025.901, 41.46724
1026.384, 41.39275
1026.866, 41.52951
1027.348, 41.93395
1027.830, 42.33467
1028.312, 42.15783
1028.794, 41.35991
1029.276, 41.10440
1029.758, 41.59777
1030.240, 41.88250
1030.723, 41.67787
1031.205, 41.49393
1031.687, 41.76038
1032.169, 42.14874
1032.651, 41.90023
1033.133, 40.85289
1033.615, 40.57602
1034.097, 41.52816
1034.579, 42.25275
1035.062, 42.44965
1035.544, 42.39822
1036.026, 42.23565
1036.508, 41.97304
1036.990, 41.60236
1037.472, 41.06865
1037.954, 40.73725
1038.436, 40.68983
1038.919, 40.71559
1039.401, 40.68283
1039.883, 40.81920
1040.365, 41.51269
1040.847, 42.40471
1041.329, 42.69322
1041.811, 42.25086
1042.293, 41.89353
1042.776, 41.67580
1043.258, 41.48855
1043.740, 41.14455
1044.222, 40.99145
1044.704, 41.45422
1045.186, 42.20119
1045.668, 42.61277
1046.150, 42.64071
1046.632, 42.38928
1047.115, 41.48698
1047.597, 40.83516
1048.079, 40.77336
1048.561, 40.91803
1049.043, 41.10175
1049.525, 41.26314
1050.007, 41.33733
1050.489, 41.32155
1050.971, 41.15112
1051.454, 40.53777
1051.936, 40.14503
1052.418, 40.34277
1052.900, 40.66185
1053.382, 40.79077
1053.864, 40.78249
1054.346, 40.74071
1054.828, 40.67718
1055.311, 40.72630
1055.793, 41.01379
1056.275, 41.29716
1056.757, 41.57220
1057.239, 41.73726
1057.721, 41.77533
1058.203, 41.62410
1058.685, 41.04885
1059.167, 40.03778
1059.650, 39.39669
1060.132, 39.56462
1060.614, 39.90867
1061.096, 40.06816
1061.578, 40.43079
1062.060, 41.82465
1062.542, 43.38811
1063.024, 43.48848
1063.506, 41.99108
1063.989, 40.74015
1064.471, 40.44457
1064.953, 40.45219
1065.435, 40.70347
1065.917, 40.94941
1066.399, 41.04060
1066.881, 40.97674
1067.363, 40.70703
1067.846, 40.26959
1068.328, 39.95824
1068.810, 39.87561
1069.292, 39.95069
1069.774, 40.30430
1070.256, 40.64946
1070.738, 40.78047
1071.220, 40.76029
1071.703, 40.65924
1072.185, 40.51287
1072.667, 40.41178
1073.149, 40.38482
1073.631, 40.41736
1074.113, 40.61709
1074.595, 40.75397
1075.077, 40.66952
1075.559, 40.41581
1076.042, 40.01545
1076.524, 39.51802
1077.006, 39.03467
1077.488, 38.48624
1077.970, 38.32854
1078.452, 39.15143
1078.934, 40.02202
1079.416, 40.38644
1079.898, 40.38786
1080.380, 40.10368
1080.863, 39.66319
1081.345, 39.36462
1081.827, 39.30602
1082.309, 39.36443
1082.791, 39.58344
1083.273, 39.78763
1083.755, 39.85707
1084.237, 39.86467
1084.720, 39.89195
1085.202, 39.92987
1085.684, 39.96293
1086.166, 40.00577
1086.648, 39.84594
1087.130, 39.02731
1087.612, 38.43881
1088.094, 38.81150
1088.577, 39.38847
1089.059, 39.44774
1089.541, 39.14182
1090.023, 38.88280
1090.505, 38.75470
1090.987, 38.76570
1091.469, 39.11015
1091.951, 39.33976
1092.433, 39.14700
1092.916, 38.87855
1093.398, 38.76093
1093.880, 38.78471
1094.362, 38.96786
1094.844, 39.28325
1095.326, 39.41409
1095.808, 39.01719
1096.290, 38.78172
1096.772, 39.09299
1097.255, 39.46326
1097.737, 39.60159
1098.219, 39.59861
1098.701, 39.58209
1099.183, 39.56781
1099.665, 39.54786
1100.147, 39.56800
1100.629, 39.48117
1101.112, 38.94371
1101.594, 38.65397
1102.076, 39.40261
1102.558, 40.23066
1103.040, 39.89234
1103.522, 38.70638
1104.004, 38.13818
1104.486, 38.63451
1104.969, 38.99246
1105.451, 38.88984
1105.933, 38.76127
1106.415, 38.69893
1106.897, 38.72315
1107.379, 38.93031
1107.861, 39.21517
1108.343, 39.29567
1108.825, 39.09020
1109.307, 39.03794
1109.790, 39.49309
1110.272, 39.65347
1110.754, 39.01632
1111.236, 38.40245
1111.718, 38.34628
1112.200, 38.60887
1112.682, 38.83654
1113.164, 39.02868
1113.647, 39.08999
1114.129, 38.68505
1114.611, 38.71861
1115.093, 39.71110
1115.575, 40.51963
1116.057, 40.54671
1116.539, 40.25792
1117.021, 40.21227
1117.504, 40.34796
1117.986, 40.18058
1118.468, 39.42398
1118.950, 39.07235
1119.432, 39.39613
1119.914, 39.58042
1120.396, 39.23093
1120.878, 38.89557
1121.360, 39.10321
1121.843, 39.64291
1122.325, 39.89354
1122.807, 39.81974
1123.289, 39.65174
1123.771, 39.33686
1124.253, 39.11167
1124.735, 39.04576
1125.217, 39.02821
1125.699, 39.01115
1126.182, 38.94745
1126.664, 38.72382
1127.146, 38.36035
1127.628, 38.19095
1128.110, 38.19415
1128.592, 38.74183
1129.074, 40.01720
1129.556, 40.72043
1130.039, 40.18976
1130.521, 39.24935
1131.003, 38.80439
1131.485, 38.75859
1131.967, 38.87001
1132.449, 39.11430
1132.931, 38.95520
1133.413, 38.37957
1133.896, 38.12598
1134.378, 38.41918
1134.860, 38.72645
1135.342, 38.61332
1135.824, 38.38015
1136.306, 38.66323
1136.788, 39.28227
1137.270, 39.54746
1137.752, 39.49262
1138.234, 39.24816
1138.717, 38.89122
1139.199, 38.76207
1139.681, 39.03569
1140.163, 39.35941
1140.645, 39.37867
1141.127, 39.14799
1141.609, 38.57498
1142.091, 37.90934
1142.574, 37.72454
1143.056, 37.98917
1143.538, 38.47759
1144.020, 39.05924
1144.502, 39.36649
1144.984, 39.01217
1145.466, 38.58675
1145.948, 38.80851
1146.431, 39.23558
1146.913, 39.32746
1147.395, 39.18811
1147.877, 39.01895
1148.359, 38.88926
1148.841, 38.87798
1149.323, 39.03887
1149.805, 39.19026
1150.287, 39.25525
1150.770, 39.22679
1151.252, 39.07788
1151.734, 38.85136
1152.216, 38.41348
1152.698, 37.98816
1153.180, 38.19304
1153.662, 39.15037
1154.144, 39.69124
1154.626, 39.12981
1155.109, 38.51196
1155.591, 38.02734
1156.073, 37.76139
1156.555, 37.85321
1157.037, 38.13558
1157.519, 38.40009
1158.001, 38.64638
1158.483, 38.99976
1158.966, 39.77772
1159.448, 40.01188
1159.930, 39.03370
1160.412, 38.34336
1160.894, 38.49392
1161.376, 38.89035
1161.858, 39.21141
1162.340, 39.40316
1162.822, 39.30434
1163.305, 38.86750
1163.787, 38.67081
1164.269, 38.85100
1164.751, 38.86707
1165.233, 38.61803
1165.715, 38.27538
1166.197, 37.87701
1166.679, 37.52057
1167.161, 37.30030
1167.644, 37.23864
1168.126, 37.48545
1168.608, 38.05604
1169.090, 38.44055
1169.572, 38.61143
1170.054, 38.81627
1170.536, 39.12579
1171.018, 39.24259
1171.500, 38.93058
1171.983, 38.53771
1172.465, 38.75616
1172.947, 39.30024
1173.429, 39.04091
1173.911, 38.25903
1174.393, 38.09933
1174.875, 38.57584
1175.357, 38.92625
1175.840, 38.87123
1176.322, 38.74984
1176.804, 38.84536
1177.286, 39.00679
1177.768, 39.06371
1178.250, 39.05415
1178.732, 38.97279
1179.214, 38.89484
1179.697, 39.03878
1180.179, 39.34248
1180.661, 39.41015
1181.143, 39.05323
1181.625, 38.65823
1182.107, 38.33081
1182.589, 38.19971
1183.071, 38.46601
1183.553, 38.86613
1184.036, 39.22425
1184.518, 39.49158
1185.000, 39.64140
1185.482, 39.66607
1185.964, 39.52690
1186.446, 39.01125
1186.928, 38.66193
1187.410, 38.68566
1187.892, 38.74752
1188.375, 38.70015
1188.857, 38.63419
1189.339, 38.54533
1189.821, 38.53035
1190.303, 38.94391
1190.785, 39.95401
1191.267, 40.35154
1191.749, 39.82633
1192.232, 39.61866
1192.714, 40.14548
1193.196, 40.25225
1193.678, 39.13242
1194.160, 38.03349
1194.642, 38.63265
1195.124, 40.34675
1195.606, 40.79142
1196.089, 40.02039
1196.571, 39.36656
1197.053, 38.90330
1197.535, 38.82016
1198.017, 39.13755
1198.499, 39.29435
1198.981, 38.92581
1199.463, 38.47645
1199.945, 38.55948
1200.427, 38.95828
1200.910, 39.42342
1201.392, 39.78786
1201.874, 39.52561
1202.356, 38.83604
1202.838, 38.40111
1203.320, 38.40330
1203.802, 38.61417
1204.284, 38.94715
1204.767, 39.30705
1205.249, 39.65669
1205.731, 39.96391
1206.213, 40.40638
1206.695, 40.63301
1207.177, 39.87577
1207.659, 38.62022
1208.141, 38.30908
1208.624, 39.29668
1209.106, 39.92113
1209.588, 39.34211
1210.070, 39.02700
1210.552, 39.63859
1211.034, 40.15753
1211.516, 39.98978
1211.998, 39.55513
1212.480, 39.19918
1212.963, 38.93750
1213.445, 38.82066
1213.927, 38.81427
1214.409, 39.21133
1214.891, 40.24590
1215.373, 40.69765
1215.855, 40.24194
1216.337, 39.62182
1216.819, 39.19578
1217.302, 38.98436
1217.784, 39.05093
1218.266, 39.29179
1218.748, 39.37915
1219.230, 39.34742
1219.712, 39.34144
1220.194, 39.38264
1220.676, 39.57407
1221.159, 39.89970
1221.641, 40.12598
1222.123, 40.12888
1222.605, 39.95979
1223.087, 39.44178
1223.569, 39.00962
1224.051, 39.37571
1224.533, 39.96616
1225.016, 40.01220
1225.498, 39.67999
1225.980, 39.35278
1226.462, 39.13800
1226.944, 39.12017
1227.426, 39.42994
1227.908, 39.63892
1228.390, 39.43891
1228.872, 39.31950
1229.354, 39.60149
1229.837, 39.93037
1230.319, 40.07559
1230.801, 40.04877
1231.283, 39.85931
1231.765, 39.51326
1232.247, 39.22748
1232.729, 38.97472
1233.211, 38.85359
1233.694, 38.83381
1234.176, 39.14158
1234.658, 39.96220
1235.140, 40.59111
1235.622, 40.50109
1236.104, 39.99293
1236.586, 39.47343
1237.068, 39.03268
1237.551, 39.14093
1238.033, 39.66891
1238.515, 40.11934
1238.997, 40.40939
1239.479, 40.43911
1239.961, 40.20758
1240.443, 39.89740
1240.925, 39.60440
1241.407, 39.37481
1241.890, 39.23982
1242.372, 39.20296
1242.854, 39.24445
1243.336, 39.40324
1243.818, 39.84391
1244.300, 40.39698
1244.782, 40.70960
1245.264, 40.73439
1245.746, 40.68402
1246.229, 40.61993
1246.711, 40.47190
1247.193, 40.06097
1247.675, 39.79283
1248.157, 39.92016
1248.639, 40.09555
1249.121, 40.10190
1249.603, 39.97074
1250.085, 39.72862
1250.568, 39.39006
1251.050, 39.19350
1251.532, 39.13666
1252.014, 39.30494
1252.496, 39.71839
1252.978, 39.96312
1253.460, 39.91531
1253.942, 39.71563
1254.425, 39.44585
1254.907, 39.24076
1255.389, 39.34489
1255.871, 39.60320
1256.353, 39.77773
1256.835, 39.85912
1257.317, 39.79743
1257.799, 39.63349
1258.281, 39.41765
1258.764, 39.19722
1259.246, 39.11892
1259.728, 39.26652
1260.210, 39.48262
1260.692, 39.99088
1261.174, 40.16004
1261.656, 39.15043
1262.138, 38.23713
1262.620, 38.70673
1263.103, 39.73641
1263.585, 39.91652
1264.067, 39.35777
1264.549, 39.05674
1265.031, 39.09618
1265.513, 39.09743
1265.995, 39.02330
1266.477, 39.08145
1266.960, 39.33347
1267.442, 39.62923
1267.924, 39.89332
1268.406, 40.09686
1268.888, 40.22455
1269.370, 40.23418
1269.852, 39.88230
1270.334, 39.39866
1270.817, 39.45781
1271.299, 39.87381
1271.781, 40.06261
1272.263, 39.97478
1272.745, 39.90577
1273.227, 39.96828
1273.709, 39.96858
1274.191, 39.59835
1274.673, 39.40545
1275.156, 39.84103
1275.638, 40.34350
1276.120, 40.66133
1276.602, 40.74736
1277.084, 40.37036
1277.566, 39.76629
1278.048, 39.72360
1278.530, 40.33239
1279.012, 40.68416
1279.495, 40.74456
1279.977, 40.61429
1280.459, 40.23032
1280.941, 40.09455
1281.423, 40.41708
1281.905, 40.76599
1282.387, 40.79545
1282.869, 40.68296
1283.352, 40.57935
1283.834, 40.63625
1284.316, 41.17657
1284.798, 42.20301
##END=



