##NAMES=Tomichite
##RRUFFID=R070685
##IDEAL CHEMISTRY=V^3+^_4_Ti^4+^_3_As^3+^O_13_(OH)
##LOCALITY=Hemlo mines, Hemlo gold deposit, Marathon, Thunder Bay District, Ontario, Canada
##OWNER=RRUFF
##SOURCE=Michael Scott
##DESCRIPTION=Black massive
##STATUS=The identification of this mineral has been confirmed by single-crystal X-ray diffraction.
##URL=rruff.info/R070685
133.9495, 2092.690
134.4316, 2071.950
134.9137, 2040.224
135.3958, 2005.916
135.8779, 1980.702
136.3601, 1965.134
136.8422, 1959.133
137.3243, 1971.148
137.8064, 1990.432
138.2885, 2003.288
138.7706, 2004.829
139.2528, 1998.410
139.7349, 1991.098
140.2170, 1984.169
140.6991, 1974.166
141.1812, 1957.857
141.6633, 1936.598
142.1455, 1915.195
142.6276, 1892.866
143.1097, 1874.088
143.5918, 1866.065
144.0739, 1875.060
144.5560, 1887.428
145.0382, 1890.353
145.5203, 1883.079
146.0024, 1870.817
146.4845, 1848.956
146.9666, 1825.421
147.4488, 1810.502
147.9309, 1812.389
148.4130, 1823.701
148.8951, 1826.109
149.3772, 1817.191
149.8593, 1802.077
150.3415, 1777.556
150.8236, 1749.402
151.3057, 1728.542
151.7878, 1724.681
152.2699, 1737.643
152.7520, 1746.177
153.2342, 1744.825
153.7163, 1743.291
154.1984, 1746.899
154.6805, 1754.008
155.1626, 1758.408
155.6447, 1753.066
156.1269, 1734.711
156.6090, 1716.307
157.0911, 1692.980
157.5732, 1673.035
158.0553, 1662.577
158.5374, 1662.217
159.0196, 1666.896
159.5017, 1668.552
159.9838, 1663.189
160.4659, 1661.086
160.9480, 1667.965
161.4301, 1675.446
161.9123, 1673.474
162.3944, 1657.987
162.8765, 1635.803
163.3586, 1624.735
163.8407, 1640.999
164.3228, 1646.538
164.8050, 1623.914
165.2871, 1586.834
165.7692, 1561.186
166.2513, 1560.987
166.7334, 1580.355
167.2155, 1594.913
167.6977, 1608.643
168.1798, 1614.804
168.6619, 1603.326
169.1440, 1578.001
169.6261, 1559.788
170.1082, 1566.289
170.5904, 1589.822
171.0725, 1601.183
171.5546, 1587.904
172.0367, 1568.830
172.5188, 1563.291
173.0009, 1573.094
173.4831, 1582.768
173.9652, 1579.748
174.4473, 1568.886
174.9294, 1558.137
175.4115, 1549.644
175.8936, 1542.838
176.3758, 1537.153
176.8579, 1533.621
177.3400, 1528.934
177.8221, 1518.770
178.3042, 1505.689
178.7863, 1495.631
179.2685, 1495.166
179.7506, 1502.151
180.2327, 1502.023
180.7148, 1487.161
181.1969, 1473.345
181.6790, 1470.964
182.1612, 1477.387
182.6433, 1482.644
183.1254, 1474.909
183.6075, 1451.634
184.0896, 1439.711
184.5717, 1454.964
185.0539, 1470.861
185.5360, 1477.128
186.0181, 1472.823
186.5002, 1462.532
186.9823, 1449.673
187.4645, 1430.406
187.9466, 1420.401
188.4287, 1427.861
188.9108, 1437.940
189.3929, 1443.022
189.8750, 1440.932
190.3572, 1432.923
190.8393, 1419.464
191.3214, 1389.338
191.8035, 1374.026
192.2856, 1388.643
192.7677, 1408.882
193.2499, 1412.134
193.7320, 1390.672
194.2141, 1349.510
194.6962, 1354.131
195.1783, 1354.885
195.6604, 1351.981
196.1426, 1334.457
196.6247, 1335.811
197.1068, 1329.600
197.5889, 1323.078
198.0710, 1327.089
198.5531, 1311.692
199.0353, 1315.535
199.5174, 1311.698
199.9995, 1311.376
200.4816, 1303.443
200.9637, 1297.860
201.4458, 1299.892
201.9280, 1297.707
202.4101, 1288.898
202.8922, 1292.829
203.3743, 1298.621
203.8564, 1293.625
204.3385, 1281.838
204.8207, 1276.827
205.3028, 1289.266
205.7849, 1314.557
206.2670, 1326.934
206.7491, 1320.687
207.2312, 1307.810
207.7134, 1292.466
208.1955, 1275.308
208.6776, 1260.101
209.1597, 1249.743
209.6418, 1243.764
210.1239, 1238.158
210.6061, 1231.769
211.0882, 1226.338
211.5703, 1224.246
212.0524, 1225.695
212.5345, 1226.649
213.0166, 1223.463
213.4988, 1217.543
213.9809, 1212.804
214.4630, 1210.874
214.9451, 1210.041
215.4272, 1208.145
215.9093, 1204.984
216.3915, 1201.485
216.8736, 1197.547
217.3557, 1193.720
217.8378, 1191.378
218.3199, 1192.108
218.8020, 1194.376
219.2842, 1195.023
219.7663, 1193.202
220.2484, 1191.694
220.7305, 1192.689
221.2126, 1195.305
221.6947, 1197.822
222.1769, 1199.359
222.6590, 1200.183
223.1411, 1202.111
223.6232, 1208.848
224.1053, 1209.972
224.5874, 1196.866
225.0696, 1174.215
225.5517, 1152.750
226.0338, 1136.558
226.5159, 1126.137
226.9980, 1126.647
227.4801, 1150.972
227.9623, 1169.454
228.4444, 1161.315
228.9265, 1135.151
229.4086, 1113.591
229.8907, 1116.909
230.3729, 1143.261
230.8550, 1159.328
231.3371, 1157.756
231.8192, 1152.532
232.3013, 1148.329
232.7834, 1145.509
233.2656, 1143.978
233.7477, 1144.834
234.2298, 1148.275
234.7119, 1147.640
235.1940, 1138.955
235.6761, 1129.450
236.1583, 1119.725
236.6404, 1111.082
237.1225, 1106.477
237.6046, 1110.195
238.0867, 1123.624
238.5688, 1132.229
239.0510, 1130.828
239.5331, 1128.716
240.0152, 1129.948
240.4973, 1133.883
240.9794, 1136.962
241.4615, 1135.037
241.9437, 1126.667
242.4258, 1121.971
242.9079, 1121.915
243.3900, 1117.799
243.8721, 1123.897
244.3542, 1126.129
244.8364, 1124.701
245.3185, 1108.655
245.8006, 1111.486
246.2827, 1106.752
246.7648, 1101.708
247.2469, 1107.196
247.7291, 1093.276
248.2112, 1098.596
248.6933, 1096.237
249.1754, 1097.392
249.6575, 1090.936
250.1396, 1086.831
250.6218, 1090.339
251.1039, 1089.632
251.5860, 1082.299
252.0681, 1083.678
252.5502, 1069.493
253.0323, 1068.965
253.5145, 1074.330
253.9966, 1062.981
254.4787, 1055.850
254.9608, 1052.633
255.4429, 1059.756
255.9250, 1075.591
256.4072, 1091.999
256.8893, 1100.765
257.3714, 1101.255
257.8535, 1095.926
258.3356, 1079.400
258.8177, 1062.841
259.2999, 1051.167
259.7820, 1044.983
260.2641, 1043.014
260.7462, 1044.156
261.2283, 1048.910
261.7104, 1054.937
262.1926, 1067.029
262.6747, 1076.223
263.1568, 1075.005
263.6389, 1064.962
264.1210, 1054.900
264.6031, 1054.216
265.0853, 1065.879
265.5674, 1071.849
266.0495, 1068.911
266.5316, 1064.300
267.0137, 1059.051
267.4958, 1054.825
267.9780, 1056.053
268.4601, 1068.538
268.9422, 1096.157
269.4243, 1110.076
269.9064, 1101.261
270.3885, 1089.786
270.8707, 1085.490
271.3528, 1088.089
271.8349, 1091.587
272.3170, 1090.262
272.7991, 1082.914
273.2813, 1080.998
273.7634, 1086.677
274.2455, 1094.430
274.7276, 1104.364
275.2097, 1114.695
275.6918, 1120.515
276.1740, 1116.508
276.6561, 1101.185
277.1382, 1097.082
277.6203, 1116.352
278.1024, 1132.594
278.5845, 1131.005
279.0667, 1115.826
279.5488, 1101.987
280.0309, 1101.345
280.5130, 1114.209
280.9951, 1122.235
281.4772, 1125.853
281.9594, 1125.379
282.4415, 1116.049
282.9236, 1102.151
283.4057, 1094.351
283.8878, 1101.170
284.3699, 1121.523
284.8521, 1132.200
285.3342, 1125.302
285.8163, 1118.487
286.2984, 1116.703
286.7805, 1119.090
287.2626, 1123.754
287.7448, 1130.054
288.2269, 1137.217
288.7090, 1138.584
289.1911, 1128.906
289.6732, 1119.773
290.1554, 1111.754
290.6375, 1106.388
291.1196, 1107.674
291.6017, 1118.673
292.0838, 1135.811
292.5659, 1141.122
293.0481, 1123.071
293.5302, 1106.690
294.0123, 1095.653
294.4944, 1088.696
294.9765, 1084.299
295.4586, 1081.839
295.9408, 1080.504
296.4229, 1077.629
296.9050, 1071.824
297.3871, 1065.993
297.8692, 1059.427
298.3513, 1053.248
298.8335, 1049.151
299.3156, 1047.825
299.7977, 1047.921
300.2798, 1046.273
300.7619, 1040.784
301.2440, 1036.103
301.7262, 1033.612
302.2083, 1031.327
302.6904, 1026.519
303.1725, 1018.542
303.6546, 1010.030
304.1367, 1006.269
304.6189, 1013.810
305.1010, 1015.367
305.5831, 1004.784
306.0652, 992.6403
306.5473, 988.4475
307.0294, 993.8282
307.5116, 1002.050
307.9937, 1003.144
308.4758, 992.2035
308.9579, 985.8038
309.4400, 987.6471
309.9221, 990.4623
310.4043, 990.4805
310.8864, 986.8578
311.3685, 979.9101
311.8506, 968.7527
312.3327, 950.2241
312.8148, 940.6516
313.2970, 944.3333
313.7791, 951.8586
314.2612, 961.6682
314.7433, 971.8711
315.2254, 979.0414
315.7076, 979.4690
316.1897, 972.4595
316.6718, 966.6089
317.1539, 963.5257
317.6360, 959.9907
318.1181, 954.8049
318.6003, 948.2892
319.0824, 940.8789
319.5645, 932.0729
320.0466, 922.3639
320.5287, 920.0464
321.0108, 933.6711
321.4930, 945.9192
321.9751, 953.3317
322.4572, 956.7332
322.9393, 957.7202
323.4214, 957.1718
323.9035, 955.0071
324.3857, 950.8370
324.8678, 944.3117
325.3499, 936.0392
325.8320, 921.2640
326.3141, 906.8626
326.7962, 902.3737
327.2784, 912.8879
327.7605, 929.8913
328.2426, 933.4760
328.7247, 914.0240
329.2068, 902.2319
329.6889, 911.2026
330.1711, 925.4340
330.6532, 931.6312
331.1353, 925.8290
331.6174, 915.1012
332.0995, 908.2289
332.5816, 904.8823
333.0638, 906.8083
333.5459, 923.0266
334.0280, 938.8529
334.5101, 944.4700
334.9922, 938.8766
335.4743, 929.3047
335.9565, 922.8266
336.4386, 919.5746
336.9207, 914.5921
337.4028, 903.6895
337.8849, 894.7346
338.3670, 892.6240
338.8492, 896.9221
339.3313, 903.7800
339.8134, 912.9972
340.2955, 923.3467
340.7776, 927.4619
341.2597, 921.6727
341.7419, 914.7202
342.2240, 912.5142
342.7061, 913.6439
343.1882, 914.4227
343.6703, 913.1469
344.1524, 910.3573
344.6346, 906.6108
345.1167, 901.1924
345.5988, 897.1985
346.0809, 898.1076
346.5630, 901.6023
347.0451, 904.3113
347.5273, 906.5286
348.0094, 906.5992
348.4915, 899.9634
348.9736, 886.3599
349.4557, 878.0024
349.9378, 883.7960
350.4200, 897.7369
350.9021, 907.7545
351.3842, 912.4921
351.8663, 914.6111
352.3484, 916.7901
352.8305, 918.1510
353.3127, 913.2967
353.7948, 896.6028
354.2769, 877.5925
354.7590, 874.5085
355.2411, 890.9810
355.7232, 907.4279
356.2054, 919.2889
356.6875, 926.0796
357.1696, 924.7618
357.6517, 913.2852
358.1338, 900.4023
358.6159, 899.2283
359.0981, 912.8751
359.5802, 920.5715
360.0623, 916.7749
360.5444, 908.0082
361.0265, 899.2389
361.5086, 891.3892
361.9908, 885.5486
362.4729, 883.3397
362.9550, 885.3607
363.4371, 883.9642
363.9192, 875.4434
364.4013, 867.2148
364.8835, 863.0153
365.3656, 862.5493
365.8477, 864.0290
366.3298, 866.3477
366.8119, 869.5308
367.2940, 873.8522
367.7762, 881.2499
368.2583, 887.4958
368.7404, 893.4764
369.2225, 897.2761
369.7046, 894.7841
370.1867, 883.9977
370.6689, 869.3034
371.1510, 862.1696
371.6331, 868.4027
372.1152, 874.1894
372.5974, 879.0641
373.0795, 883.1612
373.5616, 886.9908
374.0437, 890.5083
374.5258, 892.5501
375.0079, 890.9152
375.4901, 883.6205
375.9722, 878.8060
376.4543, 876.6295
376.9364, 876.7051
377.4185, 881.7067
377.9006, 889.6508
378.3828, 894.1727
378.8649, 887.9758
379.3470, 871.7869
379.8291, 861.9976
380.3112, 862.4740
380.7933, 864.8410
381.2755, 866.8809
381.7576, 868.2855
382.2397, 868.5875
382.7218, 867.2403
383.2039, 865.0108
383.6860, 863.5014
384.1682, 862.7808
384.6503, 862.5732
385.1324, 863.0166
385.6145, 863.8265
386.0966, 864.4109
386.5787, 864.2170
387.0609, 865.3181
387.5430, 873.1032
388.0251, 886.7184
388.5072, 890.4879
388.9893, 873.7773
389.4714, 852.2809
389.9536, 844.9837
390.4357, 852.6051
390.9178, 861.5781
391.3999, 867.4395
391.8820, 869.9583
392.3641, 867.8464
392.8463, 860.2188
393.3284, 850.9491
393.8105, 842.3064
394.2926, 834.5821
394.7747, 831.8580
395.2568, 836.8774
395.7390, 845.5410
396.2211, 857.6900
396.7032, 871.8708
397.1853, 879.8596
397.6674, 874.5067
398.1495, 858.4994
398.6317, 850.7126
399.1138, 860.6531
399.5959, 866.6064
400.0780, 856.9936
400.5601, 839.8275
401.0422, 829.2090
401.5244, 831.0759
402.0065, 839.9952
402.4886, 844.8220
402.9707, 845.7506
403.4528, 841.4702
403.9349, 824.8536
404.4171, 807.9549
404.8992, 801.4176
405.3813, 806.0086
405.8634, 814.0440
406.3455, 816.6533
406.8276, 812.3500
407.3098, 812.1407
407.7919, 821.1662
408.2740, 829.2757
408.7561, 834.4529
409.2382, 835.8862
409.7203, 831.8203
410.2025, 819.6356
410.6846, 802.7201
411.1667, 794.2634
411.6488, 796.7794
412.1309, 803.5531
412.6130, 819.8728
413.0952, 835.6483
413.5773, 838.7042
414.0594, 824.4441
414.5415, 804.5396
415.0236, 791.6301
415.5057, 785.7912
415.9879, 785.4003
416.4700, 794.5432
416.9521, 804.9150
417.4342, 808.6194
417.9163, 805.8846
418.3984, 803.2621
418.8806, 805.1730
419.3627, 809.5044
419.8448, 811.0265
420.3269, 808.4596
420.8090, 806.8752
421.2911, 812.5119
421.7733, 823.0321
422.2554, 827.9919
422.7375, 821.4738
423.2196, 813.0316
423.7017, 810.3871
424.1838, 812.0847
424.6660, 810.4307
425.1481, 800.0621
425.6302, 785.9162
426.1123, 783.7549
426.5944, 806.0496
427.0765, 819.0786
427.5587, 809.3961
428.0408, 791.0546
428.5229, 779.5934
429.0050, 778.9141
429.4871, 783.9592
429.9692, 788.9036
430.4514, 794.6462
430.9335, 796.7769
431.4156, 792.8525
431.8977, 788.3532
432.3798, 785.5386
432.8619, 784.3779
433.3441, 784.0836
433.8262, 784.2628
434.3083, 784.7320
434.7904, 784.4161
435.2725, 782.3478
435.7546, 781.0106
436.2368, 781.4102
436.7189, 782.4751
437.2010, 784.3125
437.6831, 787.1077
438.1652, 786.8942
438.6473, 775.4670
439.1295, 751.5684
439.6116, 735.5823
440.0937, 733.2236
440.5758, 737.8476
441.0579, 745.9805
441.5400, 756.8865
442.0222, 766.5667
442.5043, 773.8619
442.9864, 778.3597
443.4685, 779.2037
443.9506, 776.2311
444.4327, 770.2077
444.9149, 759.1606
445.3970, 745.5712
445.8791, 737.6736
446.3612, 736.8934
446.8433, 740.7701
447.3254, 751.1781
447.8076, 765.2621
448.2897, 776.2388
448.7718, 781.5416
449.2539, 782.4235
449.7360, 780.9489
450.2181, 776.6411
450.7003, 770.7308
451.1824, 761.3319
451.6645, 751.6930
452.1466, 744.1782
452.6287, 739.0507
453.1108, 735.5306
453.5930, 733.1885
454.0751, 732.0284
454.5572, 729.6155
455.0393, 722.0529
455.5215, 717.5007
456.0036, 717.1547
456.4857, 720.9994
456.9678, 731.1606
457.4499, 749.1250
457.9320, 766.7736
458.4142, 767.1728
458.8963, 744.2325
459.3784, 728.4271
459.8605, 729.2025
460.3426, 735.7075
460.8247, 745.0576
461.3069, 755.6694
461.7890, 760.3725
462.2711, 748.7433
462.7532, 727.9346
463.2353, 719.9356
463.7174, 729.4163
464.1996, 737.3530
464.6817, 727.3286
465.1638, 706.9617
465.6459, 695.1541
466.1280, 695.5926
466.6101, 703.1437
467.0923, 721.3116
467.5744, 744.5403
468.0565, 755.6876
468.5386, 747.4346
469.0207, 729.5254
469.5028, 717.5631
469.9850, 711.9595
470.4671, 711.9578
470.9492, 725.8357
471.4313, 739.1430
471.9134, 738.7482
472.3955, 726.1901
472.8777, 713.4359
473.3598, 710.3690
473.8419, 715.8276
474.3240, 715.7355
474.8061, 700.6104
475.2882, 691.5247
475.7704, 695.8535
476.2525, 706.1267
476.7346, 715.6613
477.2167, 722.1136
477.6988, 723.6016
478.1809, 713.7508
478.6631, 690.3574
479.1452, 678.9866
479.6273, 691.6423
480.1094, 707.4689
480.5915, 711.7675
481.0736, 707.2343
481.5558, 704.9821
482.0379, 712.2731
482.5200, 724.0395
483.0021, 733.8351
483.4842, 741.6976
483.9663, 744.2586
484.4485, 736.8411
484.9306, 724.5729
485.4127, 720.6479
485.8948, 730.0392
486.3769, 737.1790
486.8590, 736.4509
487.3412, 730.4882
487.8233, 720.5515
488.3054, 707.4227
488.7875, 697.2926
489.2696, 697.5885
489.7517, 710.1357
490.2339, 720.2540
490.7160, 732.0082
491.1981, 737.5234
491.6802, 727.1424
492.1623, 709.6949
492.6444, 700.8084
493.1266, 708.7557
493.6087, 725.5903
494.0908, 734.0508
494.5729, 731.8737
495.0550, 727.8192
495.5371, 721.2076
496.0193, 714.5219
496.5014, 708.6147
496.9835, 703.8351
497.4656, 701.1077
497.9477, 702.3718
498.4298, 706.0827
498.9120, 707.1070
499.3941, 704.2289
499.8762, 704.2153
500.3583, 714.2601
500.8404, 728.9935
501.3225, 735.9516
501.8047, 731.0048
502.2868, 724.2413
502.7689, 718.5194
503.2510, 714.8409
503.7331, 716.8408
504.2152, 725.7096
504.6974, 734.1281
505.1795, 732.6652
505.6616, 718.2661
506.1437, 708.5158
506.6258, 706.5655
507.1079, 705.5630
507.5901, 700.8768
508.0722, 694.9263
508.5543, 693.1895
509.0364, 698.7330
509.5185, 708.9330
510.0006, 718.0787
510.4828, 727.3368
510.9649, 732.3217
511.4470, 731.6729
511.9291, 727.1425
512.4113, 716.5242
512.8934, 701.4322
513.3755, 690.3914
513.8576, 691.0248
514.3397, 699.8400
514.8218, 708.7346
515.3040, 718.1506
515.7861, 724.4855
516.2682, 725.6851
516.7503, 722.1720
517.2324, 714.8499
517.7145, 698.3265
518.1967, 688.2104
518.6788, 697.1525
519.1609, 715.0297
519.6430, 725.8972
520.1251, 726.1999
520.6072, 721.3824
521.0894, 716.8049
521.5715, 712.3607
522.0536, 708.9592
522.5357, 703.9127
523.0178, 702.6111
523.4999, 710.4518
523.9821, 722.3168
524.4642, 729.9278
524.9463, 729.6061
525.4284, 725.6918
525.9105, 726.8639
526.3926, 735.4861
526.8748, 737.5555
527.3569, 724.3392
527.8390, 710.9807
528.3211, 706.5461
528.8032, 709.7300
529.2853, 714.3463
529.7675, 717.9775
530.2496, 721.0399
530.7317, 724.9820
531.2138, 729.6661
531.6959, 730.9698
532.1780, 725.6245
532.6602, 717.3438
533.1423, 713.9905
533.6244, 716.0502
534.1065, 720.2058
534.5886, 728.8572
535.0707, 737.3836
535.5529, 739.9257
536.0350, 737.2086
536.5171, 736.5283
536.9992, 744.6555
537.4813, 759.5102
537.9634, 763.1236
538.4456, 742.3940
538.9277, 728.4835
539.4098, 731.6390
539.8919, 739.9063
540.3740, 741.6202
540.8561, 734.5458
541.3383, 725.6619
541.8204, 721.1931
542.3025, 720.7487
542.7846, 721.9484
543.2667, 725.1668
543.7488, 728.8345
544.2310, 731.7352
544.7131, 734.4214
545.1952, 738.0833
545.6773, 743.4249
546.1594, 748.9650
546.6415, 756.0095
547.1237, 762.3455
547.6058, 762.0364
548.0879, 753.3699
548.5700, 742.5784
549.0521, 726.0068
549.5342, 735.5915
550.0164, 741.3096
550.4985, 743.3683
550.9806, 730.8088
551.4627, 737.1258
551.9448, 735.8779
552.4269, 734.3198
552.9091, 743.2938
553.3912, 732.8602
553.8733, 741.6670
554.3554, 742.7934
554.8375, 743.1887
555.3196, 738.2580
555.8018, 734.8978
556.2839, 736.4424
556.7660, 742.0084
557.2481, 748.7448
557.7302, 759.4289
558.2123, 767.6291
558.6945, 764.0502
559.1766, 751.1175
559.6587, 741.7663
560.1408, 741.7297
560.6229, 744.5605
561.1050, 739.0106
561.5872, 718.8927
562.0693, 707.9905
562.5514, 714.1054
563.0335, 722.7363
563.5156, 724.9039
563.9977, 722.2016
564.4799, 720.4261
564.9620, 722.9245
565.4441, 728.3040
565.9262, 733.7054
566.4083, 740.0306
566.8904, 743.5482
567.3726, 739.3224
567.8547, 735.6003
568.3368, 738.8853
568.8189, 748.0347
569.3010, 755.5206
569.7831, 756.8947
570.2653, 754.6563
570.7474, 750.3821
571.2295, 744.4921
571.7116, 744.4448
572.1937, 756.5022
572.6758, 771.9035
573.1580, 771.4396
573.6401, 746.4377
574.1222, 729.6566
574.6043, 728.3284
575.0864, 732.8939
575.5685, 739.7126
576.0507, 746.3669
576.5328, 747.4854
577.0149, 738.5193
577.4970, 724.4813
577.9791, 722.3705
578.4612, 737.4149
578.9434, 751.5593
579.4255, 765.1243
579.9076, 773.9289
580.3897, 772.0535
580.8718, 760.9290
581.3539, 751.7677
581.8361, 755.9490
582.3182, 763.4201
582.8003, 753.5862
583.2824, 727.6014
583.7645, 712.8774
584.2466, 725.1465
584.7288, 752.0983
585.2109, 767.5809
585.6930, 769.7034
586.1751, 765.7102
586.6572, 744.7927
587.1393, 727.0690
587.6215, 731.8608
588.1036, 753.9199
588.5857, 773.4198
589.0678, 777.6946
589.5499, 771.0535
590.0320, 765.9705
590.5142, 762.7014
590.9963, 760.2122
591.4784, 756.1767
591.9605, 754.6798
592.4426, 760.4542
592.9247, 772.4332
593.4069, 782.4814
593.8890, 786.5126
594.3711, 786.7870
594.8532, 785.7180
595.3353, 783.4034
595.8174, 779.3462
596.2996, 772.2578
596.7817, 765.9678
597.2638, 768.4282
597.7459, 786.1226
598.2280, 797.8627
598.7101, 802.3281
599.1923, 802.1052
599.6744, 796.2346
600.1565, 787.0228
600.6386, 778.5597
601.1207, 772.8932
601.6028, 770.2252
602.0850, 771.9780
602.5671, 779.1497
603.0492, 784.4624
603.5313, 785.5672
604.0134, 785.7996
604.4955, 788.7034
604.9777, 793.3477
605.4598, 795.3609
605.9419, 792.3164
606.4240, 787.1331
606.9061, 779.7588
607.3882, 772.0641
607.8704, 769.4311
608.3525, 773.8329
608.8346, 782.9139
609.3167, 794.4701
609.7988, 811.6214
610.2809, 818.0912
610.7631, 799.6573
611.2452, 786.8159
611.7273, 795.8925
612.2094, 815.8600
612.6915, 829.2463
613.1736, 829.4730
613.6558, 823.3461
614.1379, 817.6103
614.6200, 812.4019
615.1021, 809.3978
615.5842, 809.6467
616.0663, 809.7885
616.5485, 805.9489
617.0306, 799.7889
617.5127, 798.2502
617.9948, 807.4177
618.4769, 814.3284
618.9590, 810.8216
619.4412, 803.7860
619.9233, 802.8041
620.4054, 809.3988
620.8875, 818.2982
621.3696, 824.9741
621.8517, 829.3432
622.3339, 829.3496
622.8160, 820.2266
623.2981, 814.8164
623.7802, 820.8410
624.2623, 829.1059
624.7444, 829.7945
625.2266, 821.5692
625.7087, 814.6105
626.1908, 817.1608
626.6729, 824.2751
627.1550, 827.4146
627.6371, 826.3284
628.1193, 824.9053
628.6014, 825.0432
629.0835, 826.5097
629.5656, 828.8196
630.0477, 834.4944
630.5298, 836.6608
631.0120, 833.0820
631.4941, 827.9414
631.9762, 822.2435
632.4583, 817.2816
632.9404, 815.3589
633.4225, 817.8611
633.9047, 823.8629
634.3868, 833.4173
634.8689, 847.0063
635.3510, 854.7369
635.8331, 852.3173
636.3152, 846.8143
636.7974, 844.2090
637.2795, 844.0999
637.7616, 844.9955
638.2437, 849.8527
638.7258, 852.3730
639.2079, 847.0604
639.6901, 837.6355
640.1722, 829.5630
640.6543, 824.6100
641.1364, 823.7262
641.6185, 829.0234
642.1006, 840.8939
642.5828, 848.4064
643.0649, 849.8214
643.5470, 849.3279
644.0291, 848.2352
644.5112, 846.1459
644.9933, 841.8006
645.4755, 834.7193
645.9576, 829.2388
646.4397, 827.6448
646.9218, 829.6267
647.4039, 837.5228
647.8860, 850.5035
648.3682, 857.2883
648.8503, 849.8198
649.3324, 834.3420
649.8145, 828.7526
650.2966, 843.0555
650.7787, 850.9292
651.2609, 849.9915
651.7430, 845.0820
652.2251, 836.2611
652.7072, 825.9710
653.1893, 818.7902
653.6714, 817.0821
654.1536, 819.7099
654.6357, 827.8234
655.1178, 840.5237
655.5999, 845.5955
656.0820, 838.7584
656.5641, 828.5256
657.0463, 820.7231
657.5284, 815.9141
658.0105, 818.1505
658.4926, 837.5829
658.9747, 852.0822
659.4568, 852.3304
659.9390, 844.5154
660.4211, 832.9299
660.9033, 820.1708
661.3854, 812.7867
661.8675, 819.3063
662.3496, 836.4577
662.8317, 843.0778
663.3138, 834.9529
663.7960, 829.9633
664.2781, 836.6025
664.7602, 847.6604
665.2423, 855.5693
665.7244, 860.3480
666.2065, 860.7198
666.6887, 851.7148
667.1708, 841.9838
667.6529, 839.2888
668.1350, 841.8930
668.6171, 845.3469
669.0992, 847.7966
669.5814, 847.0815
670.0635, 837.6672
670.5456, 815.9102
671.0277, 804.4213
671.5098, 808.9506
671.9919, 816.8154
672.4741, 823.3728
672.9562, 829.4827
673.4383, 836.8577
673.9204, 846.4584
674.4025, 854.6658
674.8846, 859.3210
675.3668, 861.0887
675.8489, 861.1370
676.3310, 859.5157
676.8131, 854.8161
677.2952, 845.3714
677.7773, 833.7103
678.2595, 828.1337
678.7416, 830.8854
679.2237, 835.6978
679.7058, 846.3462
680.1879, 855.0729
680.6700, 855.2833
681.1522, 843.7748
681.6343, 851.6860
682.1164, 855.7303
682.5985, 856.1155
683.0806, 841.8823
683.5627, 846.5258
684.0449, 843.6041
684.5270, 840.3725
685.0091, 847.6727
685.4912, 835.5657
685.9733, 842.6988
686.4554, 842.1518
686.9376, 845.1194
687.4197, 840.4759
687.9018, 838.1832
688.3839, 843.5045
688.8660, 844.6099
689.3481, 839.0901
689.8303, 842.2812
690.3124, 832.2493
690.7945, 826.7535
691.2766, 825.1751
691.7587, 827.2505
692.2408, 830.4323
692.7230, 834.5781
693.2051, 837.7802
693.6872, 837.9669
694.1693, 834.9938
694.6514, 830.1391
695.1335, 816.6561
695.6157, 809.5737
696.0978, 819.1398
696.5799, 834.0964
697.0620, 841.4336
697.5441, 839.1454
698.0262, 835.0123
698.5084, 835.0463
698.9905, 838.3773
699.4726, 842.8223
699.9547, 848.4098
700.4368, 855.1135
700.9189, 864.2120
701.4011, 872.3643
701.8832, 875.0555
702.3653, 872.0121
702.8474, 863.4662
703.3295, 838.9307
703.8116, 820.3278
704.2938, 820.0741
704.7759, 830.4641
705.2580, 841.0671
705.7401, 848.6097
706.2222, 854.6208
706.7043, 861.8934
707.1865, 869.0593
707.6686, 869.3724
708.1507, 862.0505
708.6328, 852.5598
709.1149, 840.9394
709.5970, 830.8870
710.0792, 830.3434
710.5613, 842.8300
711.0434, 850.4285
711.5255, 847.0397
712.0076, 843.5390
712.4897, 848.1331
712.9719, 855.9218
713.4540, 857.1170
713.9361, 848.5141
714.4182, 838.5759
714.9003, 837.6891
715.3824, 844.1958
715.8646, 848.7108
716.3467, 850.4867
716.8288, 853.2807
717.3109, 861.2220
717.7930, 869.3751
718.2751, 866.1838
718.7573, 846.7047
719.2394, 832.4230
719.7215, 826.4592
720.2036, 824.7620
720.6857, 825.8718
721.1678, 829.3292
721.6500, 836.8917
722.1321, 849.1841
722.6142, 857.6832
723.0963, 846.8577
723.5784, 822.0137
724.0605, 813.5771
724.5427, 825.3862
725.0248, 837.9708
725.5069, 841.8113
725.9890, 839.4391
726.4711, 835.9019
726.9532, 829.8604
727.4354, 826.0818
727.9175, 825.9809
728.3996, 827.0108
728.8817, 828.5311
729.3638, 829.9615
729.8459, 830.5885
730.3281, 830.1532
730.8102, 828.7683
731.2923, 826.0176
731.7744, 822.3900
732.2565, 818.6177
732.7386, 814.3807
733.2208, 815.7924
733.7029, 828.5571
734.1850, 845.8833
734.6671, 852.8481
735.1492, 843.8749
735.6313, 836.8325
736.1135, 831.7890
736.5956, 828.5727
737.0777, 828.9272
737.5598, 830.4310
738.0419, 828.9758
738.5240, 823.1550
739.0062, 816.3047
739.4883, 809.4603
739.9704, 804.3546
740.4525, 807.6360
740.9346, 819.3285
741.4167, 827.8974
741.8989, 827.0880
742.3810, 820.9677
742.8631, 817.5300
743.3452, 817.8412
743.8273, 817.7820
744.3094, 815.6207
744.7916, 815.0207
745.2737, 821.5848
745.7558, 828.7588
746.2379, 825.0778
746.7200, 807.2883
747.2021, 792.0180
747.6843, 794.2393
748.1664, 805.2095
748.6485, 811.0922
749.1306, 811.9796
749.6127, 813.8420
750.0948, 819.5970
750.5770, 825.6024
751.0591, 825.4064
751.5412, 817.3083
752.0233, 812.7194
752.5054, 815.1806
752.9875, 816.5825
753.4697, 811.3810
753.9518, 805.5394
754.4339, 808.0967
754.9160, 820.5584
755.3981, 827.8583
755.8802, 818.2939
756.3624, 803.6867
756.8445, 793.3235
757.3266, 787.8729
757.8087, 789.0656
758.2908, 797.2761
758.7729, 806.3905
759.2551, 808.6725
759.7372, 804.2419
760.2193, 799.9657
760.7014, 795.8223
761.1835, 791.8981
761.6656, 787.8069
762.1478, 784.2670
762.6299, 781.5002
763.1120, 779.5135
763.5941, 780.4252
764.0762, 790.4884
764.5583, 797.4742
765.0405, 790.1987
765.5226, 777.0390
766.0047, 769.8704
766.4868, 771.5731
766.9689, 779.5330
767.4510, 794.6664
767.9332, 812.1861
768.4153, 813.3869
768.8974, 796.5183
769.3795, 784.4744
769.8616, 784.4679
770.3438, 788.8229
770.8259, 790.9142
771.3080, 790.6266
771.7901, 786.6262
772.2722, 771.6035
772.7543, 762.4924
773.2365, 771.3759
773.7186, 781.8275
774.2007, 774.7867
774.6828, 753.7672
775.1649, 740.1719
775.6470, 749.2189
776.1292, 766.7646
776.6113, 775.6345
777.0934, 776.8472
777.5755, 772.4111
778.0576, 762.4064
778.5397, 755.0645
779.0219, 757.9564
779.5040, 767.5474
779.9861, 767.1452
780.4682, 747.3345
780.9503, 735.4808
781.4324, 740.7264
781.9146, 746.6787
782.3967, 743.8045
782.8788, 735.5244
783.3609, 730.1603
783.8430, 730.5688
784.3251, 732.1995
784.8073, 733.3752
785.2894, 733.5488
785.7715, 730.1946
786.2536, 724.7623
786.7357, 724.0051
787.2178, 731.6991
787.7000, 741.9514
788.1821, 743.8755
788.6642, 736.8633
789.1463, 730.3082
789.6284, 723.8575
790.1105, 719.3177
790.5927, 718.8878
791.0748, 720.0977
791.5569, 718.3152
792.0390, 712.7293
792.5211, 708.3412
793.0032, 704.7994
793.4854, 703.7863
793.9675, 708.8813
794.4496, 716.0121
794.9317, 718.3032
795.4138, 714.4955
795.8959, 710.8530
796.3781, 716.1567
796.8602, 724.3724
797.3423, 720.5255
797.8244, 705.5685
798.3065, 688.3503
798.7886, 670.1737
799.2708, 659.0670
799.7529, 666.6913
800.2350, 692.6545
800.7171, 703.2158
801.1992, 684.1880
801.6813, 671.4538
802.1635, 677.0532
802.6456, 684.7229
803.1277, 680.9182
803.6098, 667.8871
804.0919, 658.1232
804.5740, 655.8407
805.0562, 657.7246
805.5383, 667.0209
806.0204, 676.3720
806.5025, 673.6102
806.9846, 659.1963
807.4667, 643.0381
807.9489, 631.0367
808.4310, 622.9254
808.9131, 617.8570
809.3952, 615.7389
809.8773, 620.7971
810.3594, 637.4902
810.8416, 648.7650
811.3237, 641.5256
811.8058, 623.7065
812.2879, 614.9128
812.7700, 618.4989
813.2521, 621.8772
813.7343, 625.8876
814.2164, 627.9701
814.6985, 624.9261
815.1806, 619.9839
815.6627, 618.4517
816.1448, 621.5149
816.6270, 624.2686
817.1091, 622.5962
817.5912, 618.6759
818.0733, 614.9872
818.5554, 611.8613
819.0375, 610.6981
819.5197, 611.9348
820.0018, 612.9499
820.4839, 610.1102
820.9660, 604.2982
821.4481, 606.3561
821.9302, 621.5092
822.4124, 629.5715
822.8945, 622.5621
823.3766, 610.9271
823.8587, 603.0820
824.3408, 598.2211
824.8230, 592.8044
825.3051, 584.6081
825.7872, 578.3200
826.2693, 575.7075
826.7515, 575.2076
827.2336, 576.8745
827.7157, 579.4061
828.1978, 579.0937
828.6799, 573.4849
829.1620, 568.9235
829.6442, 576.2112
830.1263, 590.0927
830.6084, 594.5049
831.0905, 588.6069
831.5726, 581.0163
832.0547, 575.3802
832.5369, 572.6071
833.0190, 575.1556
833.5011, 584.7133
833.9832, 588.5659
834.4653, 582.1907
834.9474, 577.3847
835.4296, 582.9954
835.9117, 588.8004
836.3938, 582.4225
836.8759, 563.8678
837.3580, 550.6672
837.8401, 544.9042
838.3223, 547.8569
838.8044, 572.4001
839.2865, 599.0142
839.7686, 597.7085
840.2507, 570.9222
840.7328, 549.8556
841.2150, 556.3364
841.6971, 575.0006
842.1792, 583.0576
842.6613, 582.3945
843.1434, 581.3535
843.6255, 581.1280
844.1077, 581.0161
844.5898, 580.6635
845.0719, 579.9145
845.5540, 578.1326
846.0361, 574.3692
846.5182, 572.8275
847.0004, 579.1060
847.4825, 579.8745
847.9646, 563.0791
848.4467, 541.0643
848.9288, 529.2125
849.4109, 529.0031
849.8931, 534.0095
850.3752, 549.6035
850.8573, 562.3613
851.3394, 563.1882
851.8215, 557.0090
852.3036, 549.5797
852.7858, 542.7552
853.2679, 537.8257
853.7500, 536.2787
854.2321, 536.4249
854.7142, 534.2221
855.1964, 531.0657
855.6785, 534.2678
856.1606, 545.0645
856.6427, 555.6284
857.1248, 560.7074
857.6069, 560.3959
858.0891, 552.6945
858.5712, 531.3026
859.0533, 526.2083
859.5354, 553.4008
860.0175, 574.2953
860.4996, 561.9641
860.9818, 534.7446
861.4639, 520.9376
861.9460, 523.1865
862.4281, 529.2767
862.9102, 543.1039
863.3923, 553.5606
863.8745, 553.5449
864.3566, 547.6049
864.8387, 539.9375
865.3208, 532.3781
865.8029, 528.4918
866.2850, 532.6083
866.7672, 539.4128
867.2493, 541.7028
867.7314, 541.1996
868.2135, 543.2343
868.6956, 548.3143
869.1777, 551.2308
869.6599, 547.8929
870.1420, 541.3289
870.6241, 539.2431
871.1062, 542.1919
871.5883, 544.9503
872.0704, 547.7263
872.5526, 548.6286
873.0347, 545.3182
873.5168, 540.6539
873.9989, 540.8770
874.4810, 549.2607
874.9631, 550.1636
875.4453, 533.0311
875.9274, 521.2478
876.4095, 526.2330
876.8916, 537.5503
877.3737, 545.3254
877.8558, 548.2843
878.3380, 548.6755
878.8201, 546.4597
879.3022, 543.2937
879.7843, 538.6501
880.2664, 534.7441
880.7485, 536.0881
881.2307, 541.8920
881.7128, 546.8675
882.1949, 548.0370
882.6770, 546.6778
883.1591, 544.2333
883.6412, 540.9281
884.1234, 537.5099
884.6055, 533.9564
885.0876, 532.8786
885.5697, 536.0991
886.0518, 540.2447
886.5339, 540.7927
887.0161, 537.8199
887.4982, 529.0184
887.9803, 505.2898
888.4624, 492.3682
888.9445, 506.3593
889.4266, 524.5908
889.9088, 527.1405
890.3909, 517.4763
890.8730, 513.1812
891.3551, 522.3231
891.8372, 528.3362
892.3193, 525.6166
892.8015, 518.9401
893.2836, 509.9475
893.7657, 500.4776
894.2478, 492.7216
894.7299, 487.3151
895.2120, 486.1348
895.6942, 493.2581
896.1763, 503.9061
896.6584, 511.8259
897.1405, 517.1555
897.6226, 521.0143
898.1047, 523.8300
898.5869, 526.7835
899.0690, 531.6655
899.5511, 536.7851
900.0332, 535.7866
900.5153, 528.4875
900.9974, 519.1370
901.4796, 506.8727
901.9617, 499.6265
902.4438, 504.2849
902.9259, 516.6641
903.4080, 524.7542
903.8901, 526.1412
904.3723, 529.3137
904.8544, 539.4714
905.3365, 544.8605
905.8186, 539.8819
906.3007, 529.0444
906.7828, 514.1277
907.2650, 495.4053
907.7471, 488.1009
908.2292, 509.7823
908.7113, 526.7785
909.1934, 518.2394
909.6755, 501.6089
910.1577, 494.7551
910.6398, 497.9180
911.1219, 502.7577
911.6040, 506.0398
912.0861, 507.0600
912.5682, 502.0761
913.0504, 495.8489
913.5325, 498.7548
914.0146, 508.7159
914.4967, 514.0780
914.9788, 510.2601
915.4609, 503.6418
915.9431, 501.4091
916.4252, 503.1112
916.9073, 506.3706
917.3894, 511.1771
917.8715, 519.4769
918.3536, 533.3890
918.8358, 543.4729
919.3179, 540.7290
919.8000, 528.2380
920.2821, 519.5953
920.7642, 515.9810
921.2463, 513.2380
921.7285, 512.2721
922.2106, 510.6777
922.6927, 504.5135
923.1748, 498.3152
923.6569, 500.6158
924.1390, 513.6619
924.6212, 520.3281
925.1033, 514.6439
925.5854, 506.7454
926.0675, 497.0562
926.5496, 489.4463
927.0317, 487.5357
927.5139, 491.3116
927.9960, 500.0339
928.4781, 518.2479
928.9602, 530.3062
929.4423, 518.2025
929.9244, 498.2641
930.4066, 489.7960
930.8887, 491.5910
931.3708, 493.9088
931.8529, 493.1055
932.3350, 494.3781
932.8171, 507.3465
933.2993, 525.1575
933.7814, 529.9413
934.2635, 523.3191
934.7456, 513.1843
935.2277, 501.4479
935.7098, 491.7663
936.1920, 487.1706
936.6741, 486.6644
937.1562, 486.9592
937.6383, 487.7099
938.1204, 493.0524
938.6025, 505.0314
939.0847, 516.3037
939.5668, 524.7255
940.0489, 528.6215
940.5310, 523.5938
941.0131, 507.2587
941.4952, 500.2807
941.9774, 512.9602
942.4595, 519.9083
942.9416, 509.9891
943.4237, 498.5070
943.9058, 497.8194
944.3879, 505.1491
944.8701, 509.8353
945.3522, 509.6989
945.8343, 508.1851
946.3164, 506.5599
946.7985, 503.4449
947.2806, 495.3235
947.7628, 486.2224
948.2449, 482.8679
948.7270, 486.3839
949.2091, 491.0769
949.6912, 492.3847
950.1733, 494.7668
950.6555, 506.7620
951.1376, 520.0553
951.6197, 519.1230
952.1018, 505.4827
952.5839, 494.7759
953.0660, 495.8764
953.5482, 500.3234
954.0303, 494.2160
954.5124, 483.9272
954.9945, 479.6946
955.4766, 489.9712
955.9587, 496.3808
956.4409, 499.1319
956.9230, 487.2641
957.4051, 494.2730
957.8872, 493.7171
958.3693, 492.8509
958.8514, 502.5165
959.3336, 492.7754
959.8157, 502.2739
960.2978, 505.3280
960.7799, 497.0995
961.2620, 485.4416
961.7441, 482.2103
962.2263, 489.1740
962.7084, 495.1853
963.1905, 501.1331
963.6726, 504.3654
964.1547, 503.9182
964.6368, 500.6652
965.1190, 494.2525
965.6011, 485.2528
966.0832, 478.5759
966.5653, 471.9729
967.0474, 471.0558
967.5295, 483.7357
968.0117, 494.2623
968.4938, 489.7780
968.9759, 479.9100
969.4580, 481.7916
969.9401, 498.4424
970.4222, 508.9616
970.9044, 501.0333
971.3865, 492.0714
971.8686, 493.0991
972.3507, 496.0821
972.8328, 489.0801
973.3149, 475.6247
973.7971, 471.2513
974.2792, 484.6080
974.7613, 497.7966
975.2434, 494.2022
975.7255, 485.5676
976.2076, 485.8427
976.6898, 492.2263
977.1719, 497.8420
977.6540, 500.3806
978.1361, 498.5719
978.6182, 488.8649
979.1003, 478.4849
979.5825, 482.2312
980.0646, 494.0542
980.5467, 495.7013
981.0288, 486.5958
981.5109, 478.2887
981.9930, 476.4031
982.4752, 479.0099
982.9573, 484.4651
983.4394, 492.0819
983.9215, 498.9382
984.4036, 504.9485
984.8857, 506.0856
985.3679, 501.1101
985.8500, 493.4701
986.3321, 485.1071
986.8142, 477.4936
987.2963, 476.1807
987.7784, 482.9727
988.2606, 481.4666
988.7427, 466.1403
989.2249, 460.5806
989.7070, 478.5404
990.1891, 502.3923
990.6712, 510.8116
991.1533, 504.4328
991.6354, 496.9269
992.1176, 484.6119
992.5997, 479.2164
993.0818, 488.2993
993.5639, 496.3202
994.0460, 493.1995
994.5281, 483.6107
995.0103, 475.9028
995.4924, 469.5513
995.9745, 467.5426
996.4566, 473.8379
996.9387, 479.4942
997.4208, 479.7485
997.9030, 480.5033
998.3851, 489.0765
998.8672, 502.4392
999.3493, 509.5059
999.8314, 505.9338
1000.314, 502.0548
1000.796, 502.3282
1001.278, 501.2771
1001.760, 492.1194
1002.242, 481.7290
1002.724, 481.4048
1003.206, 490.7938
1003.688, 495.5473
1004.170, 484.3066
1004.653, 474.9264
1005.135, 481.7834
1005.617, 492.0479
1006.099, 491.6633
1006.581, 484.1907
1007.063, 479.0568
1007.545, 479.2444
1008.027, 484.1222
1008.510, 500.7522
1008.992, 514.9022
1009.474, 505.3554
1009.956, 486.1964
1010.438, 484.3488
1010.920, 498.0016
1011.402, 503.4522
1011.884, 488.3708
1012.366, 469.5371
1012.849, 464.2832
1013.331, 468.4006
1013.813, 477.5970
1014.295, 489.1131
1014.777, 495.4592
1015.259, 495.1552
1015.741, 491.5560
1016.223, 486.6983
1016.706, 481.5086
1017.188, 474.9535
1017.670, 469.5034
1018.152, 478.3819
1018.634, 499.7547
1019.116, 512.0496
1019.598, 507.4483
1020.080, 497.9480
1020.562, 495.7959
1021.045, 498.9154
1021.527, 500.9174
1022.009, 501.9061
1022.491, 503.3436
1022.973, 505.4227
1023.455, 508.2419
1023.937, 512.2446
1024.419, 514.7407
1024.901, 511.3790
1025.384, 502.6442
1025.866, 493.6399
1026.348, 483.8461
1026.830, 479.1065
1027.312, 481.1241
1027.794, 485.8990
1028.276, 491.3799
1028.758, 496.7011
1029.240, 500.3710
1029.723, 502.7608
1030.205, 499.2018
1030.687, 486.8416
1031.169, 478.7243
1031.651, 479.1092
1032.133, 483.4201
1032.615, 489.0131
1033.097, 494.6659
1033.580, 495.4173
1034.062, 489.4879
1034.544, 483.4041
1035.026, 474.0125
1035.508, 471.5813
1035.990, 484.9112
1036.472, 500.3934
1036.954, 501.8019
1037.437, 491.0482
1037.919, 488.0791
1038.401, 501.4362
1038.883, 505.6350
1039.365, 491.3857
1039.847, 478.9205
1040.329, 478.9782
1040.811, 484.5462
1041.293, 486.4506
1041.776, 484.5425
1042.258, 482.2642
1042.740, 476.9925
1043.222, 475.2142
1043.704, 479.8928
1044.186, 485.7373
1044.668, 489.6120
1045.150, 492.8563
1045.632, 498.8705
1046.115, 508.8138
1046.597, 513.3839
1047.079, 509.5351
1047.561, 503.3740
1048.043, 492.7399
1048.525, 483.5761
1049.007, 480.1801
1049.489, 481.4506
1049.972, 485.7144
1050.454, 494.8103
1050.936, 497.7122
1051.418, 485.0061
1051.900, 475.5745
1052.382, 475.3942
1052.864, 481.7351
1053.346, 497.3217
1053.828, 517.0059
1054.311, 525.7843
1054.793, 518.3151
1055.275, 508.6873
1055.757, 493.8621
1056.239, 485.1766
1056.721, 493.9178
1057.203, 507.2646
1057.685, 511.6062
1058.167, 507.6846
1058.650, 504.0206
1059.132, 502.1821
1059.614, 501.9572
1060.096, 505.3342
1060.578, 508.0222
1061.060, 508.0641
1061.542, 505.5956
1062.024, 499.5160
1062.507, 490.8099
1062.989, 484.6909
1063.471, 482.3807
1063.953, 483.6582
1064.435, 493.7773
1064.917, 501.9605
1065.399, 496.6344
1065.881, 486.8913
1066.364, 488.1373
1066.846, 500.8144
1067.328, 508.8280
1067.810, 505.1874
1068.292, 497.6806
1068.774, 483.5632
1069.256, 472.7506
1069.738, 475.1085
1070.220, 485.1089
1070.703, 494.3173
1071.185, 500.9310
1071.667, 504.4154
1072.149, 503.4647
1072.631, 500.8014
1073.113, 495.6310
1073.595, 491.1507
1074.077, 491.6619
1074.560, 494.2740
1075.042, 492.3709
1075.524, 484.9048
1076.006, 480.8964
1076.488, 488.3597
1076.970, 495.0484
1077.452, 495.1729
1077.934, 491.4812
1078.417, 483.7790
1078.899, 475.1850
1079.381, 471.6478
1079.863, 474.4897
1080.345, 477.4833
1080.827, 478.1194
1081.309, 477.8997
1081.791, 474.4618
1082.273, 473.2171
1082.755, 483.5348
1083.238, 498.9788
1083.720, 504.4936
1084.202, 496.2671
1084.684, 486.6818
1085.166, 477.3233
1085.648, 472.7186
1086.130, 481.3337
1086.612, 490.7227
1087.095, 484.5957
1087.577, 470.4640
1088.059, 470.1897
1088.541, 490.5746
1089.023, 502.5201
1089.505, 484.3560
1089.987, 466.8174
1090.469, 467.9413
1090.952, 475.1448
1091.434, 475.9304
1091.916, 472.7048
1092.398, 474.3275
1092.880, 483.3465
1093.362, 492.2668
1093.844, 500.0930
1094.326, 505.0500
1094.808, 505.5640
1095.291, 503.3961
1095.773, 498.7965
1096.255, 493.1626
1096.737, 489.2440
1097.219, 487.6622
1097.701, 487.4111
1098.183, 491.8524
1098.665, 492.8994
1099.147, 481.1276
1099.630, 469.6846
1100.112, 472.1830
1100.594, 483.9715
1101.076, 492.3783
1101.558, 494.9318
1102.040, 495.4840
1102.522, 493.9331
1103.004, 491.9000
1103.487, 489.9356
1103.969, 487.7376
1104.451, 484.6723
1104.933, 481.2439
1105.415, 478.1989
1105.897, 475.1139
1106.379, 475.2817
1106.861, 481.2487
1107.344, 487.8986
1107.826, 497.9445
1108.308, 504.0973
1108.790, 496.5033
1109.272, 481.8757
1109.754, 476.4518
1110.236, 483.5139
1110.718, 488.8530
1111.200, 490.6473
1111.682, 491.3991
1112.165, 492.0714
1112.647, 491.4649
1113.129, 486.4224
1113.611, 480.1604
1114.093, 481.3206
1114.575, 493.4674
1115.057, 495.4338
1115.539, 476.3382
1116.022, 463.8058
1116.504, 464.9124
1116.986, 470.5176
1117.468, 478.0002
1117.950, 484.6082
1118.432, 484.3418
1118.914, 476.1010
1119.396, 470.0514
1119.879, 466.2134
1120.361, 464.5481
1120.843, 464.8924
1121.325, 468.0450
1121.807, 476.7367
1122.289, 486.1102
1122.771, 487.2042
1123.253, 479.6772
1123.735, 473.9926
1124.218, 469.8653
1124.700, 468.6699
1125.182, 471.1428
1125.664, 475.4437
1126.146, 481.6115
1126.628, 487.0088
1127.110, 487.5533
1127.592, 483.5215
1128.074, 477.8098
1128.557, 469.0959
1129.039, 469.0574
1129.521, 480.8622
1130.003, 491.5529
1130.485, 495.0994
1130.967, 493.7134
1131.449, 489.4564
1131.931, 483.2195
1132.414, 479.9722
1132.896, 479.6671
1133.378, 477.9782
1133.860, 474.4649
1134.342, 470.5644
1134.824, 466.8813
1135.306, 462.1242
1135.788, 453.3745
1136.271, 445.1859
1136.753, 454.7487
1137.235, 477.2813
1137.717, 483.1003
1138.199, 472.4852
1138.681, 467.0374
1139.163, 473.7392
1139.645, 480.9215
1140.127, 477.5914
1140.609, 471.4565
1141.092, 478.9067
1141.574, 493.1109
1142.056, 496.2346
1142.538, 489.9297
1143.020, 483.4171
1143.502, 479.2951
1143.984, 476.2049
1144.466, 472.7816
1144.949, 471.6950
1145.431, 477.8249
1145.913, 486.9704
1146.395, 496.3077
1146.877, 502.4120
1147.359, 495.7131
1147.841, 478.2249
1148.323, 465.8720
1148.806, 467.4453
1149.288, 471.6067
1149.770, 469.7894
1150.252, 466.5092
1150.734, 465.8067
1151.216, 466.2925
1151.698, 466.0386
1152.180, 464.8808
1152.662, 462.4159
1153.145, 457.5738
1153.627, 458.0231
1154.109, 474.8094
1154.591, 488.6763
1155.073, 486.6046
1155.555, 479.0441
1156.037, 472.2365
1156.519, 469.0504
1157.001, 476.7239
1157.484, 498.6719
1157.966, 508.4430
1158.448, 489.1732
1158.930, 472.8578
1159.412, 466.6701
1159.894, 467.0860
1160.376, 476.5701
1160.858, 488.9259
1161.341, 493.1005
1161.823, 488.4092
1162.305, 486.4814
1162.787, 488.3376
1163.269, 491.3059
1163.751, 497.4867
1164.233, 500.5910
1164.715, 495.6143
1165.198, 489.4112
1165.680, 491.5971
1166.162, 499.9091
1166.644, 497.8073
1167.126, 481.8989
1167.608, 470.8331
1168.090, 465.1140
1168.572, 467.2611
1169.054, 479.9994
1169.536, 492.1275
1170.019, 492.8459
1170.501, 486.8395
1170.983, 487.0516
1171.465, 492.8310
1171.947, 493.2619
1172.429, 488.3752
1172.911, 482.6588
1173.393, 477.3310
1173.876, 474.3497
1174.358, 474.9782
1174.840, 478.4840
1175.322, 476.8984
1175.804, 486.3284
1176.286, 491.8916
1176.768, 493.7957
1177.250, 481.0815
1177.733, 487.2451
1178.215, 485.8425
1178.697, 484.1298
1179.179, 492.9489
1179.661, 482.3610
1180.143, 491.0130
1180.625, 491.9849
1181.107, 496.4719
1181.589, 493.3472
1182.072, 492.5748
1182.554, 499.4150
1183.036, 502.0395
1183.518, 498.0385
1184.000, 502.7490
1184.482, 491.8952
1184.964, 493.8053
1185.446, 495.2590
1185.928, 498.7568
1186.411, 502.6272
1186.893, 505.4953
1187.375, 506.8762
1187.857, 505.0286
1188.339, 496.0833
1188.821, 491.9084
1189.303, 498.6619
1189.785, 504.3248
1190.268, 504.9052
1190.750, 502.9992
1191.232, 500.6273
1191.714, 497.1555
1192.196, 489.8003
1192.678, 476.2865
1193.160, 474.5702
1193.642, 490.1031
1194.125, 500.1996
1194.607, 500.1520
1195.089, 496.0565
1195.571, 489.8110
1196.053, 485.8439
1196.535, 491.8259
1197.017, 505.0903
1197.499, 512.0144
1197.981, 512.5777
1198.464, 503.4544
1198.946, 485.4635
1199.428, 477.8295
1199.910, 487.1107
1200.392, 498.4010
1200.874, 498.4289
1201.356, 493.9752
1201.838, 497.6475
1202.320, 504.5370
1202.803, 502.8395
1203.285, 495.6539
1203.767, 491.5848
1204.249, 492.4097
1204.731, 497.2883
1205.213, 506.5622
1205.695, 513.9511
1206.177, 514.2709
1206.660, 511.1157
1207.142, 505.8650
1207.624, 500.0356
1208.106, 494.0382
1208.588, 489.1785
1209.070, 489.0480
1209.552, 494.6301
1210.034, 496.8458
1210.516, 486.8988
1210.999, 482.4782
1211.481, 495.9112
1211.963, 507.1124
1212.445, 499.9338
1212.927, 487.7129
1213.409, 487.6472
1213.891, 498.0844
1214.373, 507.4554
1214.855, 517.2947
1215.338, 521.1973
1215.820, 517.0071
1216.302, 513.4542
1216.784, 513.4715
1217.266, 512.9421
1217.748, 508.3288
1218.230, 502.4080
1218.712, 500.9547
1219.195, 503.3820
1219.677, 504.7408
1220.159, 505.0172
1220.641, 503.8360
1221.123, 501.2880
1221.605, 497.7589
1222.087, 493.5479
1222.569, 493.4240
1223.052, 504.9975
1223.534, 518.2188
1224.016, 518.2491
1224.498, 510.2378
1224.980, 496.1286
1225.462, 483.0573
1225.944, 488.9551
1226.426, 512.5189
1226.908, 528.3204
1227.391, 523.6530
1227.873, 514.8927
1228.355, 506.9385
1228.837, 501.7587
1229.319, 501.0088
1229.801, 503.1099
1230.283, 509.8300
1230.765, 517.3614
1231.247, 514.6995
1231.730, 497.8667
1232.212, 492.8314
1232.694, 512.8796
1233.176, 520.3126
1233.658, 502.6663
1234.140, 488.8168
1234.622, 493.0253
1235.104, 504.2201
1235.587, 510.7364
1236.069, 513.0054
1236.551, 511.2621
1237.033, 505.4321
1237.515, 507.2597
1237.997, 516.7626
1238.479, 523.3710
1238.961, 524.3793
1239.443, 518.1317
1239.926, 502.8420
1240.408, 489.5235
1240.890, 498.0749
1241.372, 513.5687
1241.854, 506.4349
1242.336, 489.2501
1242.818, 486.2803
1243.300, 494.2296
1243.783, 495.8264
1244.265, 487.4902
1244.747, 482.9628
1245.229, 491.8734
1245.711, 500.8408
1246.193, 503.1631
1246.675, 503.6104
1247.157, 504.1346
1247.640, 505.1913
1248.122, 509.4128
1248.604, 514.4426
1249.086, 509.6010
1249.568, 488.4243
1250.050, 484.8010
1250.532, 509.6797
1251.014, 526.5831
1251.496, 528.4437
1251.979, 524.2122
1252.461, 516.3253
1252.943, 511.2881
1253.425, 519.3139
1253.907, 534.0693
1254.389, 529.2056
1254.871, 508.1651
1255.353, 497.0643
1255.835, 496.4041
1256.318, 499.7272
1256.800, 504.9136
1257.282, 510.7498
1257.764, 516.7791
1258.246, 520.5244
1258.728, 518.8836
1259.210, 514.1692
1259.692, 506.9311
1260.175, 499.6302
1260.657, 494.1980
1261.139, 491.6852
1261.621, 494.9304
1262.103, 503.8110
1262.585, 509.9983
1263.067, 510.3877
1263.549, 508.9514
1264.031, 507.9329
1264.514, 503.0664
1264.996, 484.1729
1265.478, 470.8147
1265.960, 483.2314
1266.442, 509.2574
1266.924, 519.4236
1267.406, 513.1269
1267.888, 509.9374
1268.370, 510.0646
1268.853, 510.2107
1269.335, 509.9038
1269.817, 512.9308
1270.299, 520.8991
1270.781, 527.2148
1271.263, 525.3654
1271.745, 519.5762
1272.227, 515.0216
1272.710, 512.3777
1273.192, 513.9705
1273.674, 517.9114
1274.156, 522.2669
1274.638, 525.1152
##END=



