##NAMES=Tremolite
##RRUFFID=R040045
##IDEAL CHEMISTRY=[box]Ca_2_Mg_5_Si_8_O_22_(OH)_2_
##LOCALITY=Gouverneur, New York, USA
##OWNER=RRUFF
##SOURCE=University of Arizona Mineral Museum
##DESCRIPTION=Group of colorless acicular single crystals
##STATUS=The identification of this mineral has been confirmed by X-ray diffraction and chemical analysis
##URL=rruff.info/R040045
##MEASURED CHEMISTRY=Ca_2.01_(Mg_0.99_Fe_0.01_)_5_(Si_0.99_Fe_0.01_)_8_O_22_(OH)_2_
141.9265, 4846.628
142.4086, 4845.594
142.8907, 4850.105
143.3728, 4865.585
143.8550, 4894.175
144.3371, 4913.560
144.8192, 4921.316
145.3013, 4921.847
145.7834, 4920.808
146.2655, 4915.562
146.7477, 4913.160
147.2298, 4916.534
147.7119, 4928.789
148.1940, 4938.323
148.6761, 4944.556
149.1582, 4948.362
149.6404, 4951.051
150.1225, 4947.778
150.6046, 4948.256
151.0867, 4956.113
151.5688, 4977.735
152.0509, 4997.164
152.5331, 5013.572
153.0152, 5027.653
153.4973, 5041.141
153.9794, 5052.359
154.4615, 5063.834
154.9436, 5076.704
155.4258, 5093.382
155.9079, 5108.275
156.3900, 5117.597
156.8721, 5123.344
157.3542, 5135.611
157.8363, 5157.517
158.3185, 5185.387
158.8006, 5217.271
159.2827, 5260.359
159.7648, 5299.647
160.2469, 5335.359
160.7290, 5366.534
161.2112, 5383.673
161.6933, 5370.752
162.1754, 5348.833
162.6575, 5335.436
163.1396, 5347.042
163.6217, 5357.992
164.1039, 5357.970
164.5860, 5346.899
165.0681, 5331.131
165.5502, 5306.194
166.0323, 5280.396
166.5145, 5262.829
166.9966, 5262.536
167.4787, 5267.132
167.9608, 5269.103
168.4429, 5267.894
168.9250, 5268.020
169.4071, 5272.099
169.8893, 5279.327
170.3714, 5288.411
170.8535, 5299.878
171.3356, 5312.413
171.8177, 5323.390
172.2998, 5331.819
172.7820, 5344.856
173.2641, 5369.040
173.7462, 5401.977
174.2283, 5438.547
174.7104, 5474.829
175.1925, 5514.334
175.6747, 5559.211
176.1568, 5608.804
176.6389, 5668.062
177.1210, 5753.080
177.6031, 5854.518
178.0852, 5943.870
178.5674, 6024.142
179.0495, 6078.307
179.5316, 6075.461
180.0137, 6003.501
180.4958, 5897.094
180.9779, 5780.641
181.4601, 5658.046
181.9422, 5551.422
182.4243, 5477.493
182.9064, 5429.340
183.3885, 5391.376
183.8706, 5361.675
184.3528, 5340.642
184.8349, 5331.590
185.3170, 5333.560
185.7991, 5336.737
186.2812, 5331.784
186.7633, 5321.802
187.2455, 5318.669
187.7276, 5326.113
188.2097, 5338.555
188.6918, 5345.635
189.1739, 5347.298
189.6560, 5348.151
190.1382, 5350.562
190.6203, 5354.792
191.1024, 5363.167
191.5845, 5378.354
192.0666, 5396.074
192.5487, 5406.476
193.0309, 5409.415
193.5130, 5407.631
193.9951, 5402.018
194.4772, 5392.831
194.9593, 5383.735
195.4414, 5374.915
195.9236, 5366.855
196.4057, 5360.884
196.8878, 5356.710
197.3699, 5355.930
197.8520, 5361.773
198.3341, 5374.519
198.8163, 5384.123
199.2984, 5386.912
199.7805, 5385.060
200.2626, 5390.016
200.7447, 5403.442
201.2268, 5417.089
201.7090, 5421.396
202.1911, 5415.089
202.6732, 5411.586
203.1553, 5413.417
203.6374, 5420.525
204.1195, 5433.709
204.6017, 5454.604
205.0838, 5477.364
205.5659, 5497.014
206.0480, 5513.738
206.5301, 5526.067
207.0122, 5531.380
207.4944, 5530.854
207.9765, 5538.120
208.4586, 5555.455
208.9407, 5575.845
209.4228, 5591.211
209.9049, 5599.491
210.3871, 5610.921
210.8692, 5628.365
211.3513, 5651.493
211.8334, 5674.619
212.3155, 5697.036
212.7976, 5720.674
213.2798, 5749.105
213.7619, 5785.696
214.2440, 5817.148
214.7261, 5840.605
215.2082, 5855.883
215.6903, 5865.495
216.1725, 5866.575
216.6546, 5865.869
217.1367, 5869.643
217.6188, 5876.179
218.1009, 5891.757
218.5830, 5918.685
219.0651, 5957.618
219.5473, 6000.849
220.0294, 6048.891
220.5115, 6101.369
220.9936, 6157.076
221.4757, 6216.135
221.9578, 6280.022
222.4400, 6357.304
222.9221, 6452.558
223.4042, 6507.514
223.8863, 6518.298
224.3684, 6494.633
224.8505, 6443.321
225.3327, 6352.065
225.8148, 6259.983
226.2969, 6173.842
226.7790, 6091.640
227.2611, 6028.530
227.7432, 5985.748
228.2254, 5959.548
228.7075, 5945.967
229.1896, 5946.578
229.6717, 5956.826
230.1538, 5978.082
230.6359, 6011.555
231.1181, 6042.733
231.6002, 6073.538
232.0823, 6100.211
232.5644, 6119.234
233.0465, 6133.336
233.5286, 6134.555
234.0108, 6119.499
234.4929, 6086.853
234.9750, 6049.579
235.4571, 6004.608
235.9392, 5958.471
236.4213, 5917.666
236.9035, 5883.188
237.3856, 5852.776
237.8677, 5825.862
238.3498, 5802.126
238.8319, 5784.108
239.3140, 5774.006
239.7962, 5767.678
240.2783, 5760.389
240.7604, 5749.567
241.2425, 5742.837
241.7246, 5743.171
242.2067, 5751.143
242.6889, 5755.075
243.1710, 5752.029
243.6531, 5747.692
244.1352, 5747.444
244.6173, 5751.640
245.0994, 5759.075
245.5816, 5769.490
246.0637, 5782.853
246.5458, 5799.604
247.0279, 5821.079
247.5100, 5844.675
247.9921, 5868.220
248.4743, 5893.778
248.9564, 5915.750
249.4385, 5933.688
249.9206, 5947.614
250.4027, 5956.337
250.8848, 5958.415
251.3670, 5957.013
251.8491, 5955.337
252.3312, 5955.784
252.8133, 5950.440
253.2954, 5935.733
253.7775, 5912.487
254.2597, 5895.011
254.7418, 5885.470
255.2239, 5878.786
255.7060, 5870.826
256.1881, 5860.239
256.6702, 5851.208
257.1523, 5844.109
257.6345, 5838.919
258.1166, 5835.753
258.5987, 5835.245
259.0808, 5835.856
259.5629, 5835.899
260.0450, 5833.509
260.5272, 5836.361
261.0093, 5848.736
261.4914, 5867.577
261.9735, 5874.511
262.4556, 5864.634
262.9377, 5851.417
263.4199, 5843.786
263.9020, 5843.130
264.3841, 5843.894
264.8662, 5846.358
265.3483, 5849.793
265.8304, 5851.294
266.3126, 5850.424
266.7947, 5848.724
267.2768, 5847.101
267.7589, 5845.650
268.2410, 5843.955
268.7231, 5841.464
269.2053, 5839.031
269.6874, 5839.128
270.1695, 5842.181
270.6516, 5846.655
271.1337, 5852.003
271.6158, 5858.527
272.0980, 5863.961
272.5801, 5867.224
273.0622, 5869.986
273.5443, 5876.612
274.0264, 5887.867
274.5085, 5899.398
274.9907, 5909.694
275.4728, 5919.002
275.9549, 5923.397
276.4370, 5921.241
276.9191, 5916.218
277.4012, 5915.413
277.8834, 5919.618
278.3655, 5924.132
278.8476, 5926.704
279.3297, 5927.369
279.8118, 5930.078
280.2939, 5935.923
280.7761, 5941.997
281.2582, 5942.212
281.7403, 5935.831
282.2224, 5933.018
282.7045, 5939.229
283.1866, 5953.547
283.6688, 5964.588
284.1509, 5971.486
284.6330, 5977.635
285.1151, 5988.308
285.5972, 6003.399
286.0793, 6016.147
286.5615, 6022.214
287.0436, 6023.772
287.5257, 6031.945
288.0078, 6047.470
288.4899, 6065.578
288.9720, 6082.354
289.4542, 6097.803
289.9363, 6112.329
290.4184, 6128.723
290.9005, 6143.187
291.3826, 6143.258
291.8647, 6128.288
292.3469, 6109.222
292.8290, 6094.479
293.3111, 6083.626
293.7932, 6073.889
294.2753, 6064.157
294.7574, 6055.621
295.2396, 6051.144
295.7217, 6050.565
296.2038, 6051.713
296.6859, 6053.729
297.1680, 6056.239
297.6501, 6057.982
298.1323, 6058.206
298.6144, 6058.655
299.0965, 6060.980
299.5786, 6065.467
300.0607, 6073.312
300.5428, 6089.618
301.0250, 6109.097
301.5071, 6121.538
301.9892, 6124.250
302.4713, 6123.378
302.9534, 6124.689
303.4355, 6127.888
303.9177, 6132.204
304.3998, 6140.417
304.8819, 6148.106
305.3640, 6147.668
305.8461, 6137.130
306.3282, 6126.363
306.8104, 6125.557
307.2925, 6131.024
307.7746, 6135.103
308.2567, 6132.841
308.7388, 6128.527
309.2209, 6125.772
309.7031, 6124.864
310.1852, 6125.409
310.6673, 6126.305
311.1494, 6128.728
311.6315, 6134.279
312.1136, 6149.278
312.5958, 6163.242
313.0779, 6167.738
313.5600, 6163.300
314.0421, 6158.640
314.5242, 6158.908
315.0063, 6160.927
315.4885, 6161.492
315.9706, 6156.850
316.4527, 6153.204
316.9348, 6153.848
317.4169, 6158.055
317.8990, 6162.681
318.3812, 6165.653
318.8633, 6169.173
319.3454, 6175.198
319.8275, 6187.846
320.3096, 6197.590
320.7917, 6201.010
321.2739, 6199.598
321.7560, 6196.916
322.2381, 6191.533
322.7202, 6187.183
323.2023, 6185.363
323.6844, 6185.728
324.1666, 6190.044
324.6487, 6202.590
325.1308, 6218.451
325.6129, 6229.895
326.0950, 6231.788
326.5771, 6232.722
327.0593, 6233.850
327.5414, 6233.741
328.0235, 6239.647
328.5056, 6257.911
328.9877, 6279.741
329.4698, 6295.710
329.9520, 6298.601
330.4341, 6304.167
330.9162, 6315.693
331.3983, 6333.413
331.8804, 6350.950
332.3625, 6371.499
332.8447, 6389.075
333.3268, 6399.312
333.8089, 6400.253
334.2910, 6397.591
334.7731, 6391.767
335.2552, 6382.813
335.7374, 6370.091
336.2195, 6349.522
336.7016, 6331.500
337.1837, 6321.896
337.6658, 6322.350
338.1479, 6326.298
338.6301, 6334.911
339.1122, 6345.638
339.5943, 6351.526
340.0764, 6350.223
340.5585, 6351.470
341.0406, 6360.748
341.5227, 6378.817
342.0049, 6394.653
342.4870, 6408.752
342.9691, 6419.845
343.4512, 6424.943
343.9333, 6423.748
344.4154, 6422.136
344.8976, 6421.773
345.3797, 6422.689
345.8618, 6425.463
346.3439, 6430.433
346.8260, 6435.443
347.3081, 6437.404
347.7903, 6437.024
348.2724, 6439.026
348.7545, 6444.659
349.2366, 6453.343
349.7187, 6464.625
350.2008, 6478.487
350.6830, 6492.894
351.1651, 6507.243
351.6472, 6521.083
352.1293, 6533.465
352.6114, 6544.741
353.0935, 6552.897
353.5757, 6556.048
354.0578, 6554.202
354.5399, 6547.522
355.0220, 6528.809
355.5041, 6508.444
355.9862, 6501.292
356.4684, 6510.167
356.9505, 6520.900
357.4326, 6521.422
357.9147, 6516.552
358.3968, 6514.118
358.8789, 6520.945
359.3611, 6528.497
359.8432, 6528.708
360.3253, 6521.929
360.8074, 6519.114
361.2895, 6526.379
361.7716, 6539.911
362.2538, 6556.327
362.7359, 6577.595
363.2180, 6598.467
363.7001, 6614.618
364.1822, 6628.352
364.6643, 6647.553
365.1465, 6674.544
365.6286, 6707.946
366.1107, 6747.634
366.5928, 6796.566
367.0749, 6846.315
367.5570, 6895.124
368.0392, 6944.325
368.5213, 6996.397
369.0034, 7063.298
369.4855, 7121.012
369.9676, 7166.774
370.4497, 7203.609
370.9319, 7210.427
371.4140, 7178.234
371.8961, 7121.104
372.3782, 7050.627
372.8603, 6951.839
373.3424, 6865.751
373.8246, 6799.659
374.3067, 6752.542
374.7888, 6711.429
375.2709, 6676.001
375.7530, 6647.305
376.2351, 6626.382
376.7173, 6614.737
377.1994, 6606.470
377.6815, 6602.345
378.1636, 6600.587
378.6457, 6596.728
379.1278, 6590.280
379.6100, 6584.926
380.0921, 6582.495
380.5742, 6582.937
381.0563, 6583.940
381.5384, 6585.322
382.0205, 6587.728
382.5027, 6591.265
382.9848, 6596.087
383.4669, 6603.996
383.9490, 6616.419
384.4311, 6631.827
384.9132, 6647.194
385.3954, 6662.409
385.8775, 6677.543
386.3596, 6692.840
386.8417, 6707.839
387.3238, 6721.070
387.8059, 6730.349
388.2881, 6741.424
388.7702, 6758.493
389.2523, 6782.154
389.7344, 6814.140
390.2165, 6861.438
390.6986, 6914.522
391.1808, 6963.983
391.6629, 7008.935
392.1450, 7053.970
392.6271, 7105.353
393.1092, 7157.454
393.5913, 7202.374
394.0735, 7241.339
394.5556, 7269.599
395.0377, 7291.815
395.5198, 7305.893
396.0019, 7290.099
396.4840, 7214.841
396.9662, 7121.564
397.4483, 7037.280
397.9304, 6969.315
398.4125, 6906.544
398.8946, 6844.277
399.3767, 6785.868
399.8589, 6739.678
400.3410, 6709.532
400.8231, 6688.619
401.3052, 6676.067
401.7873, 6674.105
402.2694, 6671.607
402.7516, 6668.477
403.2337, 6664.799
403.7158, 6660.290
404.1979, 6653.212
404.6800, 6649.294
405.1621, 6650.860
405.6443, 6656.917
406.1264, 6658.788
406.6085, 6654.316
407.0906, 6651.647
407.5727, 6659.042
408.0548, 6677.978
408.5370, 6687.698
409.0191, 6683.725
409.5012, 6674.246
409.9833, 6673.588
410.4654, 6681.651
410.9475, 6693.048
411.4297, 6705.296
411.9118, 6718.738
412.3939, 6735.390
412.8760, 6755.167
413.3581, 6775.284
413.8402, 6793.613
414.3224, 6810.046
414.8045, 6825.202
415.2866, 6841.585
415.7687, 6853.987
416.2508, 6854.302
416.7329, 6844.624
417.2151, 6834.147
417.6972, 6832.302
418.1793, 6830.271
418.6614, 6818.466
419.1435, 6793.889
419.6256, 6766.648
420.1078, 6739.408
420.5899, 6713.961
421.0720, 6691.940
421.5541, 6677.970
422.0362, 6664.170
422.5183, 6643.897
423.0005, 6617.520
423.4826, 6600.852
423.9647, 6603.919
424.4468, 6614.083
424.9289, 6623.069
425.4110, 6633.944
425.8932, 6638.624
426.3753, 6632.091
426.8574, 6619.427
427.3395, 6612.666
427.8216, 6614.529
428.3037, 6618.535
428.7859, 6622.549
429.2680, 6626.275
429.7501, 6632.292
430.2322, 6643.378
430.7143, 6652.642
431.1964, 6649.891
431.6786, 6631.466
432.1607, 6620.978
432.6428, 6625.620
433.1249, 6639.924
433.6070, 6646.366
434.0891, 6644.635
434.5713, 6639.919
435.0534, 6633.798
435.5355, 6627.235
436.0176, 6625.321
436.4997, 6629.471
436.9818, 6634.435
437.4640, 6632.763
437.9461, 6626.442
438.4282, 6621.695
438.9103, 6621.999
439.3924, 6624.585
439.8745, 6627.008
440.3566, 6629.009
440.8387, 6628.935
441.3209, 6621.798
441.8030, 6613.712
442.2851, 6611.438
442.7672, 6618.249
443.2493, 6626.587
443.7314, 6633.362
444.2136, 6638.739
444.6957, 6642.919
445.1778, 6648.092
445.6599, 6650.175
446.1420, 6645.344
446.6241, 6632.466
447.1063, 6624.605
447.5884, 6626.478
448.0705, 6632.294
448.5526, 6637.825
449.0347, 6644.696
449.5168, 6648.755
449.9990, 6648.339
450.4811, 6645.167
450.9632, 6644.050
451.4453, 6645.111
451.9274, 6648.099
452.4095, 6654.531
452.8917, 6665.159
453.3738, 6667.790
453.8559, 6660.166
454.3380, 6649.986
454.8201, 6645.677
455.3022, 6647.346
455.7844, 6650.488
456.2665, 6655.402
456.7486, 6659.864
457.2307, 6656.758
457.7128, 6646.832
458.1949, 6639.474
458.6771, 6645.210
459.1592, 6656.829
459.6413, 6657.087
460.1234, 6643.218
460.6055, 6631.321
461.0876, 6640.185
461.5698, 6660.016
462.0519, 6674.241
462.5340, 6672.993
463.0161, 6667.885
463.4982, 6665.376
463.9803, 6665.259
464.4625, 6666.426
464.9446, 6670.192
465.4267, 6673.874
465.9088, 6675.431
466.3909, 6673.230
466.8730, 6672.864
467.3552, 6674.870
467.8373, 6679.452
468.3194, 6686.983
468.8015, 6704.594
469.2836, 6716.190
469.7657, 6716.046
470.2479, 6705.841
470.7300, 6703.308
471.2121, 6712.576
471.6942, 6722.833
472.1763, 6727.716
472.6584, 6725.903
473.1406, 6725.221
473.6227, 6726.260
474.1048, 6727.862
474.5869, 6728.700
475.0690, 6728.855
475.5511, 6727.159
476.0333, 6721.862
476.5154, 6715.366
476.9975, 6714.419
477.4796, 6718.858
477.9617, 6724.131
478.4438, 6727.323
478.9260, 6728.949
479.4081, 6729.046
479.8902, 6726.770
480.3723, 6726.613
480.8544, 6735.747
481.3365, 6749.147
481.8187, 6758.190
482.3008, 6753.569
482.7829, 6748.528
483.2650, 6751.200
483.7471, 6760.772
484.2292, 6769.980
484.7114, 6778.323
485.1935, 6784.328
485.6756, 6786.733
486.1577, 6783.337
486.6398, 6780.812
487.1219, 6780.262
487.6041, 6780.744
488.0862, 6781.126
488.5683, 6781.845
489.0504, 6781.598
489.5325, 6778.972
490.0146, 6774.693
490.4968, 6775.661
490.9789, 6783.740
491.4610, 6791.926
491.9431, 6795.001
492.4252, 6792.771
492.9073, 6793.174
493.3895, 6796.990
493.8716, 6802.482
494.3537, 6809.442
494.8358, 6816.941
495.3179, 6819.261
495.8000, 6811.103
496.2822, 6799.631
496.7643, 6796.687
497.2464, 6801.063
497.7285, 6805.856
498.2106, 6806.147
498.6927, 6804.832
499.1749, 6804.455
499.6570, 6805.070
500.1391, 6807.851
500.6212, 6816.180
501.1033, 6825.849
501.5854, 6832.017
502.0676, 6827.945
502.5497, 6825.646
503.0318, 6828.362
503.5139, 6835.626
503.9960, 6844.431
504.4781, 6858.654
504.9603, 6870.611
505.4424, 6877.368
505.9245, 6878.182
506.4066, 6877.063
506.8887, 6872.360
507.3708, 6868.012
507.8530, 6868.926
508.3351, 6876.264
508.8172, 6882.076
509.2993, 6883.766
509.7814, 6884.344
510.2635, 6892.050
510.7457, 6906.816
511.2278, 6921.842
511.7099, 6934.595
512.1920, 6944.536
512.6741, 6949.859
513.1563, 6950.412
513.6384, 6949.862
514.1205, 6952.045
514.6026, 6954.929
515.0847, 6955.320
515.5668, 6951.204
516.0490, 6946.764
516.5311, 6944.810
517.0132, 6944.462
517.4953, 6943.897
517.9774, 6942.544
518.4595, 6940.884
518.9417, 6939.361
519.4238, 6938.050
519.9059, 6935.684
520.3880, 6930.331
520.8701, 6925.222
521.3522, 6922.145
521.8344, 6922.315
522.3165, 6921.916
522.7986, 6920.852
523.2807, 6919.178
523.7628, 6916.215
524.2449, 6911.035
524.7271, 6909.616
525.2092, 6915.202
525.6913, 6925.367
526.1734, 6930.843
526.6555, 6931.561
527.1376, 6932.389
527.6198, 6937.927
528.1019, 6945.997
528.5840, 6951.524
529.0661, 6953.854
529.5482, 6954.770
530.0303, 6956.626
530.5125, 6957.895
530.9946, 6956.006
531.4767, 6946.056
531.9588, 6937.353
532.4409, 6935.964
532.9230, 6939.864
533.4052, 6943.208
533.8873, 6945.431
534.3694, 6945.515
534.8515, 6942.168
535.3336, 6934.309
535.8157, 6928.699
536.2979, 6926.710
536.7800, 6925.930
537.2621, 6924.561
537.7442, 6921.959
538.2263, 6920.914
538.7084, 6922.412
539.1906, 6924.924
539.6727, 6924.919
540.1548, 6922.171
540.6369, 6920.624
541.1190, 6922.211
541.6011, 6925.885
542.0833, 6928.263
542.5654, 6929.406
543.0475, 6930.792
543.5296, 6933.019
544.0117, 6936.235
544.4938, 6940.877
544.9760, 6947.102
545.4581, 6953.603
545.9402, 6959.779
546.4223, 6965.376
546.9044, 6970.103
547.3865, 6975.373
547.8687, 6977.962
548.3508, 6972.699
548.8329, 6963.249
549.3150, 6961.416
549.7971, 6980.312
550.2792, 6995.917
550.7614, 6999.809
551.2435, 6990.888
551.7256, 6984.590
552.2077, 6982.439
552.6898, 6981.078
553.1719, 6977.552
553.6541, 6971.453
554.1362, 6967.398
554.6183, 6965.984
555.1004, 6966.411
555.5825, 6967.267
556.0646, 6968.648
556.5468, 6971.677
557.0289, 6978.534
557.5110, 6985.564
557.9931, 6985.142
558.4752, 6978.823
558.9573, 6975.077
559.4395, 6982.755
559.9216, 6992.747
560.4037, 6996.679
560.8858, 6992.963
561.3679, 6989.423
561.8500, 6987.907
562.3322, 6988.770
562.8143, 6992.314
563.2964, 7005.784
563.7785, 7012.877
564.2606, 7009.343
564.7427, 6999.940
565.2249, 6993.600
565.7070, 6990.447
566.1891, 6990.265
566.6712, 6993.599
567.1533, 6999.911
567.6354, 7006.919
568.1176, 7015.086
568.5997, 7021.130
569.0818, 7021.733
569.5639, 7018.187
570.0460, 7015.202
570.5281, 7012.979
571.0103, 7012.686
571.4924, 7016.069
571.9745, 7022.124
572.4566, 7029.313
572.9387, 7037.894
573.4208, 7046.264
573.9030, 7055.492
574.3851, 7063.720
574.8672, 7066.987
575.3493, 7058.702
575.8314, 7050.264
576.3135, 7044.708
576.7957, 7042.212
577.2778, 7044.871
577.7599, 7060.573
578.2420, 7072.609
578.7241, 7070.011
579.2062, 7046.285
579.6884, 7035.370
580.1705, 7040.166
580.6526, 7051.934
581.1347, 7061.241
581.6168, 7068.241
582.0989, 7073.882
582.5811, 7077.844
583.0632, 7081.677
583.5453, 7089.537
584.0274, 7099.952
584.5095, 7107.163
584.9916, 7105.190
585.4738, 7100.780
585.9559, 7100.335
586.4380, 7103.518
586.9201, 7106.657
587.4022, 7109.240
587.8843, 7110.286
588.3664, 7107.737
588.8485, 7097.858
589.3306, 7095.372
589.8127, 7110.915
590.2949, 7129.150
590.7770, 7136.345
591.2591, 7127.969
591.7412, 7118.497
592.2233, 7107.005
592.7054, 7097.255
593.1876, 7100.280
593.6697, 7117.486
594.1518, 7130.734
594.6339, 7132.678
595.1160, 7126.190
595.5981, 7113.742
596.0803, 7096.569
596.5624, 7086.435
597.0445, 7097.339
597.5266, 7116.948
598.0087, 7130.384
598.4908, 7136.234
598.9730, 7138.206
599.4551, 7134.483
599.9372, 7129.689
600.4193, 7128.116
600.9014, 7131.591
601.3835, 7136.687
601.8657, 7146.960
602.3478, 7157.186
602.8299, 7158.722
603.3120, 7144.599
603.7941, 7135.837
604.2762, 7139.228
604.7584, 7150.716
605.2405, 7152.995
605.7226, 7144.953
606.2047, 7136.099
606.6868, 7129.435
607.1689, 7125.947
607.6511, 7131.494
608.1332, 7146.169
608.6153, 7158.665
609.0974, 7156.897
609.5795, 7148.659
610.0616, 7144.354
610.5438, 7146.335
611.0259, 7150.349
611.5080, 7155.521
611.9901, 7160.837
612.4722, 7165.160
612.9543, 7167.771
613.4365, 7169.815
613.9186, 7170.365
614.4007, 7170.533
614.8828, 7173.378
615.3649, 7180.927
615.8470, 7186.601
616.3292, 7187.401
616.8113, 7184.358
617.2934, 7185.284
617.7755, 7190.475
618.2576, 7196.999
618.7397, 7204.939
619.2219, 7212.537
619.7040, 7213.541
620.1861, 7207.216
620.6682, 7201.005
621.1503, 7200.763
621.6324, 7204.580
622.1146, 7210.740
622.5967, 7220.869
623.0788, 7228.870
623.5609, 7231.202
624.0430, 7230.231
624.5251, 7229.300
625.0073, 7230.603
625.4894, 7230.002
625.9715, 7224.571
626.4536, 7217.042
626.9357, 7217.113
627.4178, 7227.468
627.9000, 7238.070
628.3821, 7245.806
628.8642, 7250.513
629.3463, 7249.582
629.8284, 7242.702
630.3105, 7237.370
630.7927, 7240.302
631.2748, 7248.244
631.7569, 7255.631
632.2390, 7261.998
632.7211, 7267.038
633.2032, 7269.120
633.6854, 7270.480
634.1675, 7273.839
634.6496, 7282.862
635.1317, 7288.927
635.6138, 7286.228
636.0959, 7280.454
636.5781, 7280.792
637.0602, 7293.706
637.5423, 7302.426
638.0244, 7302.712
638.5065, 7297.763
638.9886, 7297.776
639.4708, 7303.302
639.9529, 7309.860
640.4350, 7315.874
640.9171, 7321.145
641.3992, 7324.011
641.8813, 7324.652
642.3635, 7326.870
642.8456, 7334.040
643.3277, 7343.844
643.8098, 7354.620
644.2919, 7366.353
644.7740, 7375.402
645.2562, 7374.491
645.7383, 7373.090
646.2204, 7379.482
646.7025, 7402.569
647.1846, 7420.815
647.6667, 7430.784
648.1489, 7437.168
648.6310, 7446.017
649.1131, 7457.931
649.5952, 7469.952
650.0773, 7481.531
650.5594, 7493.112
651.0416, 7506.847
651.5237, 7522.396
652.0058, 7535.815
652.4879, 7542.591
652.9700, 7548.369
653.4521, 7562.556
653.9343, 7583.984
654.4164, 7606.474
654.8985, 7627.013
655.3806, 7647.087
655.8627, 7666.472
656.3448, 7685.041
656.8270, 7707.407
657.3091, 7736.738
657.7912, 7768.715
658.2733, 7800.752
658.7554, 7832.956
659.2375, 7864.509
659.7197, 7894.685
660.2018, 7925.201
660.6839, 7956.458
661.1660, 7988.505
661.6481, 8027.513
662.1302, 8075.130
662.6124, 8127.688
663.0945, 8180.981
663.5766, 8235.261
664.0587, 8291.385
664.5408, 8348.738
665.0229, 8408.311
665.5051, 8467.862
665.9872, 8530.045
666.4693, 8601.359
666.9514, 8685.240
667.4335, 8777.267
667.9156, 8876.915
668.3978, 8983.273
668.8799, 9097.258
669.3620, 9219.377
669.8441, 9349.135
670.3262, 9489.650
670.8083, 9640.315
671.2905, 9789.587
671.7726, 9938.248
672.2547, 10079.45
672.7368, 10216.16
673.2189, 10337.07
673.7010, 10417.17
674.1832, 10453.62
674.6653, 10449.96
675.1474, 10406.70
675.6295, 10325.65
676.1116, 10207.52
676.5938, 10041.10
677.0759, 9859.218
677.5580, 9654.518
678.0401, 9444.053
678.5222, 9246.871
679.0043, 9063.291
679.4865, 8891.067
679.9686, 8725.803
680.4507, 8574.040
680.9328, 8442.098
681.4149, 8331.104
681.8970, 8239.773
682.3792, 8172.860
682.8613, 8121.180
683.3434, 8067.316
683.8255, 8013.858
684.3076, 7966.714
684.7897, 7933.513
685.2719, 7905.206
685.7540, 7875.752
686.2361, 7845.291
686.7182, 7817.845
687.2003, 7793.069
687.6824, 7773.251
688.1646, 7759.799
688.6467, 7753.495
689.1288, 7748.210
689.6109, 7744.882
690.0930, 7740.374
690.5751, 7730.087
691.0573, 7714.778
691.5394, 7705.720
692.0215, 7704.016
692.5036, 7706.147
692.9857, 7712.847
693.4678, 7719.772
693.9500, 7718.815
694.4321, 7705.917
694.9142, 7690.422
695.3963, 7675.597
695.8784, 7662.251
696.3605, 7651.543
696.8427, 7644.647
697.3248, 7639.520
697.8069, 7637.428
698.2890, 7636.515
698.7711, 7632.388
699.2532, 7623.777
699.7354, 7617.731
700.2175, 7616.804
700.6996, 7619.053
701.1817, 7619.833
701.6638, 7619.376
702.1459, 7618.804
702.6281, 7618.729
703.1102, 7618.875
703.5923, 7619.339
704.0744, 7619.850
704.5565, 7619.192
705.0386, 7612.897
705.5208, 7608.553
706.0029, 7611.315
706.4850, 7622.147
706.9671, 7629.088
707.4492, 7628.881
707.9313, 7628.974
708.4135, 7634.397
708.8956, 7645.643
709.3777, 7650.710
709.8598, 7648.762
710.3419, 7645.813
710.8240, 7648.823
711.3062, 7654.831
711.7883, 7655.521
712.2704, 7649.084
712.7525, 7644.785
713.2346, 7653.869
713.7167, 7666.794
714.1989, 7673.295
714.6810, 7666.827
715.1631, 7661.919
715.6452, 7661.411
716.1273, 7663.660
716.6094, 7667.508
717.0916, 7674.185
717.5737, 7678.601
718.0558, 7679.487
718.5379, 7678.784
719.0200, 7679.341
719.5021, 7681.160
719.9843, 7684.977
720.4664, 7691.987
720.9485, 7699.324
721.4306, 7703.251
721.9127, 7704.746
722.3948, 7706.011
722.8770, 7706.512
723.3591, 7708.464
723.8412, 7713.367
724.3233, 7720.630
724.8054, 7727.721
725.2875, 7735.795
725.7697, 7741.578
726.2518, 7743.764
726.7339, 7742.819
727.2160, 7740.548
727.6981, 7736.755
728.1802, 7734.281
728.6624, 7734.871
729.1445, 7737.832
729.6266, 7743.487
730.1087, 7751.140
730.5908, 7755.386
731.0729, 7748.100
731.5551, 7739.961
732.0372, 7739.488
732.5193, 7747.983
733.0014, 7756.085
733.4835, 7761.778
733.9656, 7767.253
734.4478, 7773.414
734.9299, 7780.319
735.4120, 7787.645
735.8941, 7795.028
736.3762, 7804.111
736.8583, 7817.093
737.3405, 7833.087
737.8226, 7849.271
738.3047, 7865.642
738.7868, 7879.249
739.2689, 7883.647
739.7510, 7885.649
740.2332, 7893.658
740.7153, 7912.180
741.1974, 7929.054
741.6795, 7944.353
742.1616, 7953.925
742.6437, 7953.003
743.1259, 7935.277
743.6080, 7922.846
744.0901, 7917.411
744.5722, 7916.669
745.0543, 7920.232
745.5364, 7927.072
746.0186, 7925.878
746.5007, 7911.132
746.9828, 7897.042
747.4649, 7903.581
747.9470, 7921.362
748.4291, 7934.006
748.9113, 7929.834
749.3934, 7927.009
749.8755, 7932.910
750.3576, 7944.159
750.8397, 7954.668
751.3218, 7967.515
751.8040, 7972.544
752.2861, 7965.435
752.7682, 7951.375
753.2503, 7942.172
753.7324, 7937.804
754.2145, 7936.075
754.6967, 7939.060
755.1788, 7940.769
755.6609, 7929.690
756.1430, 7910.001
756.6251, 7893.608
757.1072, 7886.341
757.5894, 7883.487
758.0715, 7885.589
758.5536, 7891.048
759.0357, 7892.329
759.5178, 7884.341
759.9999, 7880.295
760.4821, 7886.065
760.9642, 7898.533
761.4463, 7901.666
761.9284, 7895.079
762.4105, 7889.684
762.8926, 7892.545
763.3748, 7899.409
763.8569, 7902.736
764.3390, 7903.250
764.8211, 7904.747
765.3032, 7911.924
765.7853, 7918.347
766.2675, 7919.269
766.7496, 7914.684
767.2317, 7913.522
767.7138, 7917.681
768.1959, 7923.563
768.6780, 7930.376
769.1602, 7938.019
769.6423, 7943.204
770.1244, 7945.802
770.6065, 7948.208
771.0886, 7952.626
771.5707, 7957.611
772.0529, 7959.476
772.5350, 7958.377
773.0171, 7959.372
773.4992, 7967.498
773.9813, 7976.751
774.4634, 7983.125
774.9456, 7985.777
775.4277, 7988.102
775.9098, 7991.082
776.3919, 7992.553
776.8740, 7990.421
777.3561, 7984.695
777.8383, 7983.221
778.3204, 7986.434
778.8025, 7991.229
779.2846, 7997.616
779.7667, 8003.228
780.2488, 8001.978
780.7310, 7993.386
781.2131, 7987.534
781.6952, 7990.779
782.1773, 7998.177
782.6594, 8007.284
783.1415, 8019.606
783.6237, 8025.935
784.1058, 8023.009
784.5879, 8018.434
785.0699, 8017.301
785.5521, 8019.463
786.0342, 8022.601
786.5163, 8026.596
786.9984, 8031.580
787.4805, 8038.862
787.9626, 8046.815
788.4448, 8053.337
788.9269, 8058.210
789.4090, 8062.020
789.8911, 8063.352
790.3732, 8065.126
790.8553, 8070.356
791.3375, 8081.975
791.8196, 8088.098
792.3017, 8086.249
792.7838, 8083.379
793.2659, 8085.511
793.7480, 8092.162
794.2302, 8099.138
794.7123, 8106.226
795.1944, 8111.774
795.6765, 8112.013
796.1586, 8110.974
796.6407, 8114.872
797.1229, 8126.155
797.6050, 8134.702
798.0871, 8135.261
798.5692, 8132.991
799.0513, 8132.138
799.5334, 8133.993
800.0156, 8133.411
800.4977, 8129.451
800.9798, 8125.729
801.4619, 8126.271
801.9440, 8130.236
802.4261, 8133.099
802.9083, 8134.206
803.3904, 8136.758
803.8725, 8146.513
804.3546, 8157.349
804.8367, 8162.163
805.3188, 8157.786
805.8010, 8154.380
806.2831, 8155.222
806.7652, 8156.895
807.2473, 8157.274
807.7294, 8156.241
808.2115, 8153.844
808.6937, 8149.351
809.1758, 8146.688
809.6579, 8151.175
810.1400, 8160.358
810.6221, 8168.060
811.1042, 8173.645
811.5864, 8178.287
812.0685, 8185.010
812.5506, 8189.745
813.0327, 8187.484
813.5148, 8172.683
813.9969, 8166.938
814.4791, 8174.681
814.9612, 8186.937
815.4433, 8197.682
815.9254, 8206.710
816.4075, 8217.492
816.8896, 8230.629
817.3718, 8240.166
817.8539, 8235.831
818.3360, 8226.363
818.8181, 8226.244
819.3002, 8237.719
819.7823, 8248.295
820.2645, 8250.490
820.7466, 8251.101
821.2287, 8255.192
821.7108, 8263.834
822.1929, 8271.568
822.6750, 8279.156
823.1572, 8284.287
823.6393, 8282.475
824.1214, 8275.963
824.6035, 8278.313
825.0856, 8289.832
825.5677, 8302.068
826.0499, 8309.143
826.5320, 8312.992
827.0141, 8313.990
827.4962, 8311.857
827.9783, 8312.675
828.4604, 8319.423
828.9426, 8328.235
829.4247, 8339.872
829.9068, 8354.705
830.3889, 8353.556
830.8710, 8334.352
831.3531, 8315.592
831.8353, 8311.908
832.3174, 8317.235
832.7995, 8319.759
833.2816, 8319.574
833.7637, 8320.756
834.2458, 8324.917
834.7280, 8331.724
835.2101, 8343.696
835.6922, 8360.876
836.1743, 8368.408
836.6564, 8361.321
837.1385, 8354.425
837.6207, 8354.750
838.1028, 8360.430
838.5849, 8363.340
839.0670, 8363.541
839.5491, 8362.397
840.0313, 8357.068
840.5134, 8353.512
840.9955, 8359.801
841.4776, 8373.735
841.9597, 8384.647
842.4418, 8385.783
842.9240, 8387.363
843.4061, 8393.027
843.8882, 8401.464
844.3703, 8406.952
844.8524, 8409.221
845.3345, 8410.596
845.8167, 8411.792
846.2988, 8412.885
846.7809, 8414.324
847.2630, 8415.844
847.7451, 8416.586
848.2272, 8412.900
848.7094, 8411.928
849.1915, 8420.344
849.6736, 8433.782
850.1557, 8439.968
850.6378, 8434.222
851.1199, 8431.543
851.6021, 8435.379
852.0842, 8443.079
852.5663, 8449.050
853.0484, 8453.735
853.5305, 8459.693
854.0126, 8467.673
854.4948, 8476.987
854.9769, 8488.266
855.4590, 8499.834
855.9411, 8509.244
856.4232, 8513.099
856.9053, 8518.129
857.3875, 8526.307
857.8696, 8534.496
858.3517, 8538.537
858.8338, 8538.372
859.3159, 8536.425
859.7980, 8533.002
860.2802, 8528.483
860.7623, 8520.018
861.2444, 8512.025
861.7265, 8512.150
862.2086, 8524.584
862.6907, 8537.484
863.1729, 8548.927
863.6550, 8557.326
864.1371, 8560.664
864.6192, 8556.164
865.1013, 8557.229
865.5834, 8564.967
866.0656, 8574.118
866.5477, 8579.625
867.0298, 8582.703
867.5119, 8587.286
867.9940, 8593.512
868.4761, 8598.345
868.9583, 8598.450
869.4404, 8597.397
869.9225, 8596.521
870.4046, 8595.417
870.8867, 8601.670
871.3688, 8620.584
871.8510, 8636.731
872.3331, 8641.807
872.8152, 8637.342
873.2973, 8628.014
873.7794, 8614.701
874.2615, 8606.591
874.7437, 8613.814
875.2258, 8625.338
875.7079, 8631.854
876.1900, 8634.156
876.6721, 8638.283
877.1542, 8648.701
877.6364, 8657.256
878.1185, 8662.285
878.6006, 8663.978
879.0827, 8661.265
879.5648, 8654.201
880.0469, 8650.373
880.5291, 8653.779
881.0112, 8660.104
881.4933, 8663.743
881.9754, 8666.187
882.4575, 8670.504
882.9396, 8678.648
883.4218, 8687.737
883.9039, 8699.183
884.3860, 8710.101
884.8681, 8715.761
885.3502, 8715.214
885.8323, 8715.750
886.3145, 8718.875
886.7966, 8721.826
887.2787, 8720.640
887.7608, 8716.826
888.2429, 8712.340
888.7250, 8706.294
889.2072, 8704.538
889.6893, 8712.502
890.1714, 8724.006
890.6535, 8733.674
891.1356, 8740.979
891.6177, 8748.678
892.0999, 8757.342
892.5820, 8764.499
893.0641, 8766.555
893.5462, 8765.652
894.0283, 8767.950
894.5104, 8773.510
894.9926, 8777.986
895.4747, 8776.635
895.9568, 8775.135
896.4389, 8777.873
896.9210, 8784.983
897.4031, 8789.001
897.8853, 8787.916
898.3674, 8788.813
898.8495, 8795.560
899.3316, 8805.986
899.8137, 8814.216
900.2958, 8820.362
900.7780, 8825.199
901.2601, 8829.630
901.7422, 8832.403
902.2243, 8829.244
902.7064, 8824.009
903.1885, 8827.356
903.6707, 8847.516
904.1528, 8861.477
904.6349, 8864.221
905.1170, 8861.205
905.5991, 8861.242
906.0812, 8863.943
906.5634, 8867.475
907.0455, 8871.408
907.5276, 8875.881
908.0097, 8884.251
908.4918, 8891.598
908.9739, 8891.415
909.4561, 8874.865
909.9382, 8867.741
910.4203, 8873.867
910.9024, 8884.680
911.3845, 8894.325
911.8666, 8902.780
912.3488, 8907.877
912.8309, 8909.639
913.3130, 8911.914
913.7951, 8917.343
914.2772, 8925.011
914.7593, 8935.477
915.2415, 8948.545
915.7236, 8957.719
916.2057, 8958.005
916.6878, 8959.886
917.1699, 8966.706
917.6520, 8977.787
918.1342, 8992.857
918.6163, 9011.127
919.0984, 9023.978
919.5805, 9023.149
920.0626, 9019.478
920.5447, 9021.963
921.0269, 9029.607
921.5090, 9040.387
921.9911, 9057.987
922.4732, 9073.100
922.9553, 9084.366
923.4374, 9093.447
923.9196, 9101.778
924.4017, 9109.701
924.8838, 9121.478
925.3659, 9138.592
925.8480, 9155.768
926.3301, 9166.968
926.8123, 9175.913
927.2944, 9186.910
927.7765, 9201.132
928.2586, 9215.741
928.7407, 9230.342
929.2228, 9245.098
929.7050, 9260.706
930.1871, 9276.813
930.6692, 9291.081
931.1513, 9303.461
931.6334, 9310.186
932.1155, 9304.685
932.5977, 9295.676
933.0798, 9292.666
933.5619, 9293.956
934.0440, 9289.733
934.5261, 9271.831
935.0082, 9256.169
935.4904, 9246.113
935.9725, 9240.031
936.4546, 9234.920
936.9367, 9230.386
937.4188, 9222.010
937.9009, 9206.768
938.3831, 9191.357
938.8652, 9181.849
939.3473, 9175.944
939.8294, 9170.499
940.3115, 9162.438
940.7936, 9159.686
941.2758, 9164.620
941.7579, 9171.771
942.2400, 9176.581
942.7221, 9179.223
943.2042, 9180.166
943.6863, 9179.439
944.1685, 9179.908
944.6506, 9183.471
945.1327, 9189.182
945.6148, 9196.174
946.0969, 9204.340
946.5790, 9214.807
947.0612, 9230.583
947.5433, 9242.499
948.0254, 9246.056
948.5075, 9244.490
948.9896, 9249.211
949.4717, 9258.396
949.9539, 9262.671
950.4360, 9256.046
950.9181, 9246.514
951.4002, 9236.115
951.8823, 9227.529
952.3644, 9225.412
952.8466, 9232.858
953.3287, 9241.327
953.8108, 9251.594
954.2929, 9260.648
954.7750, 9263.159
955.2571, 9261.632
955.7393, 9264.997
956.2214, 9274.252
956.7035, 9281.987
957.1856, 9281.687
957.6677, 9279.551
958.1498, 9279.216
958.6320, 9280.850
959.1141, 9285.308
959.5962, 9293.918
960.0783, 9300.338
960.5604, 9301.040
961.0425, 9298.232
961.5247, 9294.354
962.0068, 9290.972
962.4889, 9292.791
962.9710, 9307.928
963.4531, 9321.653
963.9352, 9327.952
964.4174, 9329.828
964.8995, 9331.955
965.3816, 9335.088
965.8637, 9333.806
966.3458, 9326.145
966.8279, 9321.490
967.3101, 9334.248
967.7922, 9355.367
968.2743, 9371.053
968.7564, 9379.712
969.2385, 9383.469
969.7206, 9373.771
970.2028, 9369.129
970.6849, 9379.756
971.1670, 9403.335
971.6491, 9421.350
972.1312, 9433.439
972.6133, 9443.389
973.0955, 9455.607
973.5776, 9463.191
974.0597, 9449.994
974.5418, 9427.179
975.0239, 9417.398
975.5060, 9441.111
975.9882, 9459.660
976.4703, 9469.877
976.9524, 9472.658
977.4345, 9465.007
977.9166, 9449.072
978.3987, 9445.017
978.8809, 9455.693
979.3630, 9469.243
979.8451, 9478.294
980.3272, 9484.430
980.8093, 9487.649
981.2914, 9487.799
981.7736, 9492.461
982.2557, 9504.182
982.7377, 9515.127
983.2198, 9522.768
983.7020, 9526.737
984.1841, 9522.065
984.6662, 9512.154
985.1483, 9509.660
985.6304, 9528.255
986.1125, 9544.158
986.5947, 9539.744
987.0768, 9528.323
987.5589, 9529.520
988.0410, 9547.860
988.5231, 9563.429
989.0052, 9575.818
989.4874, 9582.573
989.9695, 9576.791
990.4516, 9565.674
990.9337, 9560.601
991.4158, 9562.553
991.8979, 9568.188
992.3801, 9581.935
992.8622, 9592.987
993.3443, 9596.651
993.8264, 9594.718
994.3085, 9594.729
994.7906, 9596.757
995.2728, 9597.760
995.7549, 9595.253
996.2370, 9594.145
996.7191, 9601.003
997.2012, 9612.096
997.6833, 9622.043
998.1655, 9628.193
998.6476, 9635.244
999.1297, 9643.764
999.6118, 9652.016
1000.094, 9657.200
1000.576, 9660.360
1001.058, 9667.469
1001.540, 9678.291
1002.022, 9688.295
1002.505, 9692.649
1002.987, 9696.884
1003.469, 9704.515
1003.951, 9715.041
1004.433, 9726.326
1004.915, 9740.714
1005.397, 9746.021
1005.879, 9736.582
1006.361, 9723.949
1006.844, 9727.644
1007.326, 9740.128
1007.808, 9746.615
1008.290, 9740.652
1008.772, 9738.854
1009.254, 9748.992
1009.736, 9762.947
1010.218, 9777.520
1010.701, 9792.617
1011.183, 9799.974
1011.665, 9799.915
1012.147, 9804.426
1012.629, 9827.055
1013.111, 9852.328
1013.593, 9864.969
1014.075, 9868.739
1014.557, 9874.525
1015.040, 9884.214
1015.522, 9895.490
1016.004, 9908.539
1016.486, 9922.138
1016.968, 9934.874
1017.450, 9946.843
1017.932, 9958.183
1018.414, 9968.890
1018.896, 9978.090
1019.379, 9981.464
1019.861, 9986.644
1020.343, 9999.000
1020.825, 10017.79
1021.307, 10036.44
1021.789, 10055.10
1022.271, 10072.69
1022.753, 10089.21
1023.236, 10104.15
1023.718, 10114.06
1024.200, 10122.69
1024.682, 10136.75
1025.164, 10164.20
1025.646, 10187.42
1026.128, 10201.56
1026.610, 10216.36
1027.093, 10243.03
1027.575, 10279.00
1028.057, 10307.20
1028.539, 10327.10
1029.021, 10344.72
1029.503, 10360.62
1029.985, 10378.10
1030.467, 10407.28
1030.949, 10439.71
1031.432, 10444.92
1031.914, 10417.43
1032.396, 10383.88
1032.878, 10348.88
1033.360, 10313.18
1033.842, 10276.65
1034.324, 10241.32
1034.806, 10208.93
1035.288, 10178.42
1035.771, 10158.43
1036.253, 10158.82
1036.735, 10160.90
1037.217, 10156.14
1037.699, 10145.60
1038.181, 10133.93
1038.663, 10121.62
1039.145, 10112.49
1039.628, 10112.22
1040.110, 10111.46
1040.592, 10099.50
1041.074, 10084.67
1041.556, 10081.44
1042.038, 10095.08
1042.520, 10104.58
1043.002, 10108.26
1043.484, 10109.85
1043.967, 10113.64
1044.449, 10117.29
1044.931, 10113.32
1045.413, 10102.97
1045.895, 10102.81
1046.377, 10130.32
1046.859, 10154.51
1047.341, 10165.52
1047.823, 10168.59
1048.306, 10175.75
1048.788, 10186.59
1049.270, 10199.33
1049.752, 10214.29
1050.234, 10227.57
1050.716, 10233.82
1051.198, 10238.52
1051.680, 10247.50
1052.163, 10261.59
1052.645, 10273.91
1053.127, 10285.25
1053.609, 10291.57
1054.091, 10283.30
1054.573, 10275.36
1055.055, 10297.79
1055.537, 10339.37
1056.020, 10374.63
1056.502, 10388.58
1056.984, 10404.41
1057.466, 10423.24
1057.948, 10446.54
1058.430, 10479.30
1058.912, 10518.83
1059.394, 10548.37
1059.876, 10566.96
1060.359, 10581.51
1060.841, 10597.90
1061.323, 10610.22
1061.805, 10614.29
1062.287, 10611.23
1062.769, 10603.87
1063.251, 10591.90
1063.733, 10578.72
1064.215, 10564.84
1064.698, 10550.95
1065.180, 10534.46
1065.662, 10519.98
1066.144, 10514.88
1066.626, 10522.50
1067.108, 10526.26
1067.590, 10521.71
1068.072, 10518.63
1068.555, 10520.38
1069.037, 10527.31
1069.519, 10546.19
1070.001, 10571.83
1070.483, 10586.46
1070.965, 10574.60
1071.447, 10563.77
1071.929, 10571.99
1072.411, 10580.59
1072.894, 10570.60
1073.376, 10540.37
1073.858, 10515.35
1074.340, 10496.34
1074.822, 10483.12
1075.304, 10478.69
1075.786, 10477.76
1076.268, 10477.55
1076.750, 10477.28
1077.233, 10474.69
1077.715, 10469.16
1078.197, 10462.28
1078.679, 10453.12
1079.161, 10446.03
1079.643, 10448.95
1080.125, 10456.61
1080.607, 10458.17
1081.090, 10452.13
1081.572, 10452.46
1082.054, 10470.93
1082.536, 10487.94
1083.018, 10498.46
1083.500, 10502.67
1083.982, 10496.39
1084.464, 10483.10
1084.946, 10481.01
1085.429, 10499.56
1085.911, 10517.37
1086.393, 10520.42
1086.875, 10518.45
1087.357, 10519.60
1087.839, 10524.09
1088.321, 10531.57
1088.803, 10542.46
1089.286, 10548.62
1089.768, 10540.88
1090.250, 10531.22
1090.732, 10530.84
1091.214, 10537.74
1091.696, 10548.65
1092.178, 10567.87
1092.660, 10580.18
1093.142, 10583.08
1093.625, 10585.41
1094.107, 10598.87
1094.589, 10616.08
1095.071, 10619.43
1095.553, 10611.07
1096.035, 10607.69
1096.517, 10625.81
1096.999, 10636.06
1097.481, 10628.18
1097.964, 10613.28
1098.446, 10608.22
1098.928, 10612.27
1099.410, 10625.21
1099.892, 10647.66
1100.374, 10662.94
1100.856, 10652.52
1101.338, 10638.90
1101.821, 10636.35
1102.303, 10642.76
1102.785, 10648.02
1103.267, 10652.08
1103.749, 10656.00
1104.231, 10659.24
1104.713, 10665.02
1105.195, 10681.60
1105.677, 10699.64
1106.160, 10706.62
1106.642, 10696.67
1107.124, 10699.33
1107.606, 10717.48
1108.088, 10736.98
1108.570, 10752.58
1109.052, 10763.14
1109.534, 10765.52
1110.016, 10761.79
1110.499, 10756.35
1110.981, 10746.97
1111.463, 10741.80
1111.945, 10741.56
1112.427, 10745.02
1112.909, 10751.73
1113.391, 10761.32
1113.873, 10776.15
1114.356, 10794.19
1114.838, 10803.62
1115.320, 10788.36
1115.802, 10776.72
1116.284, 10780.87
1116.766, 10791.28
1117.248, 10792.45
1117.730, 10785.69
1118.213, 10794.90
1118.695, 10822.27
1119.177, 10846.84
1119.659, 10850.02
1120.141, 10847.82
1120.623, 10850.24
1121.105, 10856.20
1121.587, 10860.42
1122.069, 10862.48
1122.552, 10867.48
1123.034, 10877.61
1123.516, 10885.65
1123.998, 10879.12
1124.480, 10869.89
1124.962, 10873.07
1125.444, 10891.95
1125.926, 10896.78
1126.408, 10882.24
1126.891, 10872.04
1127.373, 10875.38
1127.855, 10886.22
1128.337, 10899.34
1128.819, 10911.78
1129.301, 10917.50
1129.783, 10910.86
1130.265, 10911.62
1130.748, 10926.39
1131.230, 10938.24
1131.712, 10934.88
1132.194, 10923.19
1132.676, 10922.67
1133.158, 10930.75
1133.640, 10939.85
1134.122, 10946.19
1134.604, 10954.91
1135.087, 10971.60
1135.569, 10985.76
1136.051, 10985.49
1136.533, 10973.54
1137.015, 10972.30
1137.497, 10981.02
1137.979, 10992.36
1138.461, 11006.80
1138.943, 11017.88
1139.426, 11019.49
1139.908, 11017.70
1140.390, 11019.61
1140.872, 11025.20
1141.354, 11034.94
1141.836, 11048.84
1142.318, 11058.14
1142.800, 11048.82
1143.283, 11039.65
1143.765, 11046.43
1144.247, 11064.00
1144.729, 11075.58
1145.211, 11080.79
1145.693, 11084.22
1146.175, 11086.50
1146.657, 11087.84
1147.140, 11082.90
1147.622, 11081.09
1148.104, 11095.52
1148.586, 11125.18
1149.068, 11144.21
1149.550, 11150.86
1150.032, 11149.60
1150.514, 11138.25
1150.996, 11129.16
1151.479, 11145.80
1151.961, 11170.92
1152.443, 11180.37
1152.925, 11168.30
1153.407, 11162.93
1153.889, 11168.20
1154.371, 11175.05
1154.853, 11181.41
1155.335, 11185.73
1155.818, 11179.75
1156.300, 11171.17
1156.782, 11175.26
1157.264, 11200.94
1157.746, 11222.59
1158.228, 11239.41
1158.710, 11247.76
1159.192, 11242.43
1159.675, 11229.44
1160.157, 11224.03
1160.639, 11224.10
1161.121, 11223.66
1161.603, 11216.10
1162.085, 11217.12
1162.567, 11235.60
1163.049, 11255.10
1163.531, 11263.18
1164.014, 11262.77
1164.496, 11267.41
1164.978, 11276.28
1165.460, 11285.78
1165.942, 11299.14
1166.424, 11306.17
1166.906, 11297.12
1167.388, 11287.55
1167.870, 11294.57
1168.353, 11315.58
1168.835, 11327.08
1169.317, 11329.17
1169.799, 11329.64
1170.281, 11331.66
1170.763, 11334.34
1171.245, 11336.31
1171.727, 11339.27
1172.210, 11345.99
1172.692, 11356.18
1173.174, 11366.77
1173.656, 11377.30
1174.138, 11385.90
1174.620, 11394.24
1175.102, 11397.29
1175.584, 11385.89
1176.067, 11369.84
1176.549, 11367.99
1177.031, 11380.56
1177.513, 11390.83
1177.995, 11396.80
1178.477, 11401.88
1178.959, 11411.20
1179.441, 11418.27
1179.923, 11413.00
1180.406, 11402.40
1180.888, 11412.53
1181.370, 11444.87
1181.852, 11457.98
1182.334, 11441.66
1182.816, 11425.62
1183.298, 11439.04
1183.780, 11461.20
1184.262, 11476.98
1184.745, 11485.69
1185.227, 11488.55
1185.709, 11484.87
1186.191, 11483.01
1186.673, 11485.43
1187.155, 11488.70
1187.637, 11489.49
1188.119, 11489.70
1188.602, 11490.82
1189.084, 11493.19
1189.566, 11498.78
1190.048, 11508.22
1190.530, 11516.25
1191.012, 11521.18
1191.494, 11524.59
1191.976, 11527.53
1192.458, 11530.20
1192.941, 11532.28
1193.423, 11533.52
1193.905, 11538.10
1194.387, 11546.55
1194.869, 11553.12
1195.351, 11554.10
1195.833, 11554.69
1196.315, 11560.56
1196.797, 11569.58
1197.280, 11579.93
1197.762, 11591.93
1198.244, 11601.23
1198.726, 11607.81
1199.208, 11612.05
1199.690, 11613.38
1200.172, 11613.78
1200.654, 11612.83
1201.137, 11613.79
1201.619, 11622.88
1202.101, 11644.60
1202.583, 11656.00
1203.065, 11655.68
1203.547, 11654.84
1204.029, 11659.51
1204.511, 11666.86
1204.994, 11675.68
1205.476, 11684.14
1205.958, 11688.46
1206.440, 11685.65
1206.922, 11688.26
1207.404, 11696.76
1207.886, 11706.97
1208.368, 11717.06
1208.850, 11726.53
1209.333, 11736.93
1209.815, 11745.60
1210.297, 11746.49
1210.779, 11736.53
1211.261, 11728.21
1211.743, 11721.60
1212.225, 11716.45
1212.707, 11710.87
1213.189, 11708.20
1213.672, 11711.25
1214.154, 11720.15
1214.636, 11736.80
1215.118, 11767.90
1215.600, 11781.95
1216.082, 11776.40
1216.564, 11768.47
1217.046, 11770.08
1217.529, 11776.85
1218.011, 11786.25
1218.493, 11797.05
1218.975, 11806.81
1219.457, 11815.39
1219.939, 11822.30
1220.421, 11827.19
1220.903, 11832.27
1221.385, 11838.60
1221.868, 11846.24
1222.350, 11856.93
1222.832, 11868.55
1223.314, 11876.31
1223.796, 11879.41
1224.278, 11882.33
1224.760, 11885.57
1225.242, 11886.21
1225.724, 11875.72
1226.207, 11867.67
1226.689, 11878.02
1227.171, 11899.15
1227.653, 11911.19
1228.135, 11913.62
1228.617, 11908.78
1229.099, 11896.45
1229.581, 11888.14
1230.064, 11896.29
1230.546, 11908.72
1231.028, 11917.56
1231.510, 11923.09
1231.992, 11926.20
1232.474, 11926.22
1232.956, 11930.98
1233.438, 11941.15
1233.921, 11950.44
1234.403, 11951.94
1234.885, 11952.82
1235.367, 11958.09
1235.849, 11966.24
1236.331, 11976.17
1236.813, 11988.08
1237.295, 11988.23
1237.777, 11975.56
1238.260, 11967.04
1238.742, 11984.33
1239.224, 11999.60
1239.706, 11990.59
1240.188, 11972.36
1240.670, 11971.03
1241.152, 11984.93
1241.634, 11993.35
1242.116, 11994.26
1242.599, 11998.43
1243.081, 12019.62
1243.563, 12036.81
1244.045, 12038.13
1244.527, 12032.20
1245.009, 12032.41
1245.491, 12038.05
1245.973, 12047.31
1246.456, 12059.60
1246.938, 12069.60
1247.420, 12073.54
1247.902, 12076.00
1248.384, 12078.47
1248.866, 12080.91
1249.348, 12083.86
1249.830, 12086.77
1250.313, 12085.46
1250.795, 12080.29
1251.277, 12080.54
1251.759, 12098.25
1252.241, 12110.34
1252.723, 12108.82
1253.205, 12104.73
1253.687, 12117.72
1254.169, 12139.18
1254.651, 12150.31
1255.134, 12150.04
1255.616, 12145.61
1256.098, 12132.12
1256.580, 12126.77
1257.062, 12134.12
1257.544, 12146.18
1258.026, 12152.78
1258.508, 12156.91
1258.991, 12164.29
1259.473, 12174.47
1259.955, 12179.81
1260.437, 12175.62
1260.919, 12177.32
1261.401, 12188.71
1261.883, 12200.76
1262.365, 12204.51
1262.848, 12202.73
1263.330, 12194.16
1263.812, 12182.25
1264.294, 12185.32
1264.776, 12209.43
1265.258, 12225.33
1265.740, 12228.73
1266.222, 12226.98
1266.704, 12224.11
1267.187, 12221.89
1267.669, 12221.04
1268.151, 12222.29
1268.633, 12227.43
1269.115, 12236.51
1269.597, 12246.00
1270.079, 12255.27
1270.561, 12265.81
1271.043, 12280.88
1271.526, 12295.34
1272.008, 12305.44
1272.490, 12312.28
1272.972, 12317.33
1273.454, 12320.67
1273.936, 12325.06
1274.418, 12330.69
1274.900, 12332.38
1275.383, 12320.04
1275.865, 12312.47
1276.347, 12320.56
1276.829, 12333.57
1277.311, 12334.87
1277.793, 12327.70
1278.275, 12325.19
1278.757, 12327.85
1279.239, 12329.15
1279.722, 12321.04
1280.204, 12319.50
1280.686, 12330.06
1281.168, 12343.17
1281.650, 12344.84
1282.132, 12341.46
1282.614, 12347.97
1283.096, 12363.14
1283.578, 12376.30
1284.061, 12383.23
1284.543, 12391.13
1285.025, 12401.53
1285.507, 12409.48
1285.989, 12407.25
1286.471, 12401.81
1286.953, 12403.51
1287.435, 12410.06
1287.917, 12411.64
1288.400, 12404.18
1288.882, 12407.21
1289.364, 12423.37
1289.846, 12438.32
1290.328, 12438.07
1290.810, 12434.01
##END=



