##NAMES=Wardite
##RRUFFID=R050643
##IDEAL CHEMISTRY=NaAl_3_(PO_4_)_2_(OH)_4_&#183;2H_2_O
##LOCALITY=Big Fish River, Yukon Territory, Canada
##OWNER=RRUFF
##SOURCE=Rock Currier
##DESCRIPTION=Tan bipyramidal pseudo-octahedral crystals
##STATUS=The identification of this mineral has been confirmed by X-ray diffraction and chemical analysis
##URL=rruff.info/R050643
##MEASURED CHEMISTRY=(Na_0.93_[box]_0.05_Ca_0.02_)_Σ=1_(Al_2.97_Fe^3+^_0.03_)_Σ=3_(P_1.00_O_4_)_2_((OH)_3.88_F_0.12_)_Σ=4_·2H_2_O
89.78156, 0.0000000E+00
90.26367, 49.79158
90.74579, 49.41142
91.22791, 49.35072
91.71002, 49.61746
92.19214, 50.31151
92.67426, 51.07727
93.15638, 52.27736
93.63850, 54.92762
94.12061, 60.62617
94.60273, 67.69012
95.08485, 72.63987
95.56696, 75.50060
96.04908, 75.78017
96.53120, 71.14756
97.01331, 61.97939
97.49543, 54.24964
97.97755, 51.25488
98.45966, 52.73716
98.94178, 53.30925
99.42390, 52.70128
99.90602, 51.51026
100.3881, 50.80377
100.8703, 50.61510
101.3524, 50.79580
101.8345, 51.43555
102.3166, 52.75294
102.7987, 53.52818
103.2808, 53.49294
103.7630, 52.85878
104.2451, 52.52904
104.7272, 52.48290
105.2093, 52.76534
105.6914, 53.50124
106.1735, 55.27332
106.6557, 56.45594
107.1378, 56.41431
107.6199, 55.07673
108.1020, 55.03986
108.5841, 57.79950
109.0662, 61.07570
109.5484, 62.85876
110.0305, 60.84052
110.5126, 59.64078
110.9947, 60.05957
111.4768, 62.27549
111.9590, 65.34988
112.4411, 70.39159
112.9232, 75.98880
113.4053, 80.17729
113.8874, 80.90359
114.3695, 81.59750
114.8517, 83.51534
115.3338, 87.00105
115.8159, 91.21184
116.2980, 95.80529
116.7801, 100.9912
117.2622, 107.1584
117.7444, 113.3843
118.2265, 121.3164
118.7086, 132.2253
119.1907, 147.8512
119.6728, 164.4583
120.1549, 179.3964
120.6371, 193.3422
121.1192, 209.1093
121.6013, 229.7929
122.0834, 252.5293
122.5655, 274.0640
123.0476, 293.2766
123.5298, 311.0160
124.0119, 327.7466
124.4940, 343.5067
124.9761, 358.9066
125.4582, 374.2576
125.9404, 389.4911
126.4225, 404.3352
126.9046, 417.7724
127.3867, 431.0335
127.8688, 445.8877
128.3509, 462.3214
128.8331, 480.4839
129.3152, 499.8580
129.7973, 520.8978
130.2794, 545.2842
130.7615, 574.3292
131.2436, 607.4324
131.7258, 642.4222
132.2079, 679.3871
132.6900, 717.7421
133.1721, 756.8544
133.6542, 796.5585
134.1364, 836.7776
134.6185, 880.5057
135.1006, 927.4568
135.5827, 965.3024
136.0648, 992.7247
136.5469, 1011.519
137.0291, 1025.029
137.5112, 1032.513
137.9933, 1037.388
138.4754, 1042.005
138.9575, 1046.664
139.4396, 1048.717
139.9218, 1047.005
140.4039, 1042.478
140.8860, 1039.533
141.3681, 1037.932
141.8502, 1038.407
142.3323, 1041.687
142.8145, 1048.420
143.2966, 1056.296
143.7787, 1064.443
144.2608, 1072.989
144.7429, 1084.903
145.2250, 1101.008
145.7072, 1119.909
146.1893, 1140.281
146.6714, 1161.159
147.1535, 1184.967
147.6356, 1213.190
148.1178, 1246.794
148.5999, 1277.710
149.0820, 1308.713
149.5641, 1335.711
150.0462, 1353.492
150.5283, 1355.673
151.0105, 1354.788
151.4926, 1340.723
151.9747, 1323.327
152.4568, 1308.377
152.9389, 1295.207
153.4210, 1284.749
153.9032, 1278.171
154.3853, 1278.081
154.8674, 1279.691
155.3495, 1281.156
155.8316, 1280.917
156.3137, 1283.778
156.7959, 1290.114
157.2780, 1299.919
157.7601, 1313.203
158.2422, 1330.023
158.7243, 1350.248
159.2065, 1374.032
159.6886, 1401.929
160.1707, 1432.233
160.6528, 1466.188
161.1349, 1502.372
161.6170, 1537.030
162.0992, 1568.338
162.5813, 1598.005
163.0634, 1627.027
163.5455, 1654.731
164.0276, 1683.051
164.5097, 1712.778
164.9919, 1743.814
165.4740, 1775.799
165.9561, 1807.136
166.4382, 1839.908
166.9203, 1876.399
167.4024, 1918.405
167.8846, 1963.064
168.3667, 2008.595
168.8488, 2055.295
169.3309, 2105.129
169.8130, 2159.619
170.2952, 2218.043
170.7773, 2278.723
171.2594, 2341.809
171.7415, 2406.888
172.2236, 2472.164
172.7057, 2538.023
173.1879, 2611.042
173.6700, 2695.490
174.1521, 2790.430
174.6342, 2894.373
175.1163, 3007.636
175.5984, 3130.254
176.0806, 3266.733
176.5627, 3417.831
177.0448, 3563.226
177.5269, 3706.936
178.0090, 3832.664
178.4911, 3905.081
178.9733, 3916.049
179.4554, 3862.480
179.9375, 3725.112
180.4196, 3500.994
180.9017, 3238.439
181.3838, 2965.140
181.8660, 2690.999
182.3481, 2441.055
182.8302, 2227.168
183.3123, 2047.350
183.7944, 1900.078
184.2766, 1785.030
184.7587, 1695.566
185.2408, 1626.559
185.7229, 1576.982
186.2050, 1536.963
186.6871, 1505.116
187.1693, 1479.521
187.6514, 1455.306
188.1335, 1431.900
188.6156, 1409.695
189.0977, 1389.200
189.5798, 1370.403
190.0620, 1351.840
190.5441, 1331.395
191.0262, 1309.764
191.5083, 1292.210
191.9904, 1279.336
192.4725, 1269.072
192.9547, 1258.061
193.4368, 1246.183
193.9189, 1234.392
194.4010, 1222.939
194.8831, 1211.868
195.3652, 1201.600
195.8474, 1191.791
196.3295, 1183.392
196.8116, 1178.751
197.2937, 1178.140
197.7758, 1178.738
198.2579, 1179.113
198.7401, 1179.252
199.2222, 1179.159
199.7043, 1178.082
200.1864, 1177.560
200.6685, 1181.933
201.1507, 1192.038
201.6328, 1202.954
202.1149, 1211.365
202.5970, 1216.870
203.0791, 1223.938
203.5612, 1232.889
204.0434, 1243.558
204.5255, 1255.669
205.0076, 1269.492
205.4897, 1283.849
205.9718, 1298.388
206.4539, 1313.385
206.9361, 1326.759
207.4182, 1337.625
207.9003, 1347.058
208.3824, 1358.686
208.8645, 1372.601
209.3466, 1388.588
209.8288, 1407.047
210.3109, 1428.537
210.7930, 1449.852
211.2751, 1469.980
211.7572, 1489.849
212.2393, 1513.881
212.7215, 1542.513
213.2036, 1573.733
213.6857, 1606.197
214.1678, 1639.811
214.6499, 1675.294
215.1320, 1712.806
215.6142, 1752.548
216.0963, 1794.645
216.5784, 1839.293
217.0605, 1885.510
217.5426, 1932.302
218.0247, 1977.970
218.5069, 2027.946
218.9890, 2083.766
219.4711, 2144.306
219.9532, 2206.220
220.4353, 2273.678
220.9175, 2336.618
221.3996, 2392.563
221.8817, 2449.067
222.3638, 2477.735
222.8459, 2474.655
223.3280, 2441.260
223.8102, 2383.905
224.2923, 2291.963
224.7744, 2191.003
225.2565, 2095.519
225.7386, 2001.951
226.2207, 1922.870
226.7029, 1861.103
227.1850, 1814.940
227.6671, 1779.043
228.1492, 1755.283
228.6313, 1739.076
229.1134, 1727.890
229.5956, 1721.856
230.0777, 1720.587
230.5598, 1725.838
231.0419, 1736.098
231.5240, 1743.994
232.0062, 1748.877
232.4883, 1752.337
232.9704, 1755.964
233.4525, 1762.883
233.9346, 1763.208
234.4167, 1755.869
234.8989, 1741.352
235.3810, 1721.600
235.8631, 1694.423
236.3452, 1664.492
236.8273, 1633.702
237.3094, 1600.539
237.7916, 1569.731
238.2737, 1540.713
238.7558, 1514.051
239.2379, 1491.616
239.7200, 1473.683
240.2021, 1459.548
240.6843, 1448.815
241.1664, 1442.002
241.6485, 1437.515
242.1306, 1435.690
242.6127, 1436.136
243.0948, 1437.468
243.5770, 1439.907
244.0591, 1443.001
244.5412, 1446.448
245.0233, 1449.982
245.5054, 1454.443
245.9876, 1459.114
246.4697, 1464.832
246.9518, 1474.674
247.4339, 1490.312
247.9160, 1507.651
248.3981, 1524.371
248.8803, 1539.197
249.3624, 1556.707
249.8445, 1577.522
250.3266, 1600.900
250.8087, 1624.833
251.2908, 1648.374
251.7730, 1673.609
252.2551, 1701.362
252.7372, 1732.751
253.2193, 1764.223
253.7014, 1795.272
254.1835, 1826.351
254.6657, 1858.317
255.1478, 1891.826
255.6299, 1925.174
256.1120, 1958.066
256.5941, 1990.249
257.0763, 2022.637
257.5584, 2057.725
258.0405, 2091.844
258.5226, 2118.373
259.0047, 2140.199
259.4868, 2149.134
259.9690, 2142.610
260.4511, 2121.099
260.9332, 2081.181
261.4153, 2018.253
261.8974, 1940.465
262.3795, 1861.109
262.8617, 1777.234
263.3438, 1697.108
263.8259, 1621.449
264.3080, 1549.786
264.7901, 1489.232
265.2722, 1441.593
265.7544, 1402.875
266.2365, 1368.520
266.7186, 1338.766
267.2007, 1312.867
267.6828, 1291.122
268.1649, 1273.363
268.6471, 1258.596
269.1292, 1247.072
269.6113, 1237.715
270.0934, 1229.127
270.5755, 1221.048
271.0576, 1214.495
271.5398, 1210.144
272.0219, 1207.882
272.5040, 1205.260
272.9861, 1202.596
273.4682, 1198.976
273.9503, 1192.566
274.4325, 1182.543
274.9146, 1174.632
275.3967, 1170.964
275.8788, 1170.795
276.3610, 1167.976
276.8431, 1161.682
277.3252, 1155.338
277.8073, 1152.502
278.2894, 1153.498
278.7715, 1154.303
279.2537, 1154.051
279.7358, 1153.033
280.2179, 1152.754
280.7000, 1153.527
281.1821, 1153.653
281.6642, 1150.971
282.1464, 1145.458
282.6285, 1141.922
283.1106, 1141.887
283.5927, 1143.691
284.0748, 1142.575
284.5569, 1138.260
285.0391, 1133.352
285.5212, 1129.291
286.0033, 1126.070
286.4854, 1123.685
286.9675, 1121.951
287.4496, 1121.295
287.9318, 1123.737
288.4139, 1129.353
288.8960, 1133.464
289.3781, 1131.922
289.8602, 1126.049
290.3423, 1122.717
290.8245, 1122.907
291.3066, 1124.807
291.7887, 1125.451
292.2708, 1125.035
292.7529, 1125.300
293.2350, 1127.990
293.7172, 1132.169
294.1993, 1134.635
294.6814, 1135.017
295.1635, 1134.805
295.6456, 1135.518
296.1277, 1137.125
296.6099, 1139.545
297.0920, 1143.463
297.5741, 1147.972
298.0562, 1151.170
298.5383, 1152.947
299.0204, 1154.093
299.5026, 1155.295
299.9847, 1156.461
300.4668, 1157.368
300.9489, 1157.447
301.4311, 1157.462
301.9132, 1158.447
302.3953, 1160.403
302.8774, 1163.002
303.3595, 1166.235
303.8416, 1169.913
304.3238, 1173.801
304.8059, 1177.810
305.2880, 1181.927
305.7701, 1185.721
306.2522, 1189.380
306.7343, 1193.837
307.2165, 1199.506
307.6986, 1206.443
308.1807, 1214.887
308.6628, 1225.782
309.1449, 1236.915
309.6270, 1247.179
310.1092, 1256.541
310.5913, 1264.588
311.0734, 1269.108
311.5555, 1273.296
312.0376, 1279.993
312.5197, 1290.233
313.0019, 1301.587
313.4840, 1313.720
313.9661, 1326.098
314.4482, 1337.746
314.9303, 1347.388
315.4124, 1356.814
315.8946, 1366.715
316.3767, 1377.021
316.8588, 1388.868
317.3409, 1403.601
317.8230, 1420.019
318.3051, 1436.466
318.7873, 1452.269
319.2694, 1468.374
319.7515, 1485.725
320.2336, 1504.535
320.7157, 1522.046
321.1978, 1537.065
321.6800, 1550.473
322.1621, 1563.000
322.6442, 1575.626
323.1263, 1586.505
323.6084, 1595.820
324.0905, 1603.428
324.5727, 1607.395
325.0548, 1604.520
325.5369, 1599.765
326.0190, 1596.127
326.5012, 1592.950
326.9833, 1591.972
327.4654, 1593.725
327.9475, 1597.913
328.4296, 1603.269
328.9117, 1608.882
329.3939, 1616.468
329.8760, 1626.885
330.3581, 1641.537
330.8402, 1656.471
331.3223, 1671.779
331.8044, 1687.375
332.2866, 1703.315
332.7687, 1720.565
333.2508, 1736.508
333.7329, 1751.456
334.2150, 1766.949
334.6971, 1773.938
335.1793, 1771.864
335.6614, 1761.922
336.1435, 1745.325
336.6256, 1720.921
337.1077, 1692.413
337.5898, 1659.970
338.0720, 1623.564
338.5541, 1590.601
339.0362, 1561.434
339.5183, 1534.419
340.0004, 1507.891
340.4825, 1481.147
340.9647, 1458.451
341.4468, 1441.111
341.9289, 1428.023
342.4110, 1414.930
342.8931, 1401.563
343.3752, 1390.536
343.8574, 1384.329
344.3395, 1382.638
344.8216, 1381.946
345.3037, 1381.954
345.7858, 1382.638
346.2679, 1384.377
346.7501, 1387.083
347.2322, 1389.325
347.7143, 1390.739
348.1964, 1391.119
348.6785, 1389.577
349.1607, 1385.877
349.6428, 1381.343
350.1249, 1377.519
350.6070, 1374.104
351.0891, 1370.023
351.5713, 1364.083
352.0534, 1357.672
352.5355, 1353.069
353.0176, 1350.273
353.4997, 1347.479
353.9818, 1343.082
354.4640, 1337.847
354.9461, 1332.946
355.4282, 1329.225
355.9103, 1325.368
356.3924, 1319.450
356.8745, 1312.118
357.3567, 1306.054
357.8388, 1304.182
358.3209, 1303.406
358.8030, 1300.425
359.2851, 1293.195
359.7672, 1287.820
360.2494, 1288.385
360.7315, 1293.029
361.2136, 1298.280
361.6957, 1306.037
362.1778, 1311.507
362.6599, 1311.452
363.1421, 1304.954
363.6242, 1298.283
364.1063, 1293.549
364.5884, 1289.427
365.0705, 1284.603
365.5526, 1278.310
366.0348, 1271.815
366.5169, 1264.846
366.9990, 1257.521
367.4811, 1251.734
367.9632, 1249.667
368.4453, 1247.787
368.9275, 1244.055
369.4096, 1235.886
369.8917, 1229.393
370.3738, 1224.386
370.8559, 1221.120
371.3380, 1220.549
371.8202, 1224.568
372.3023, 1228.713
372.7844, 1231.235
373.2665, 1231.728
373.7487, 1232.175
374.2308, 1232.323
374.7129, 1232.689
375.1950, 1233.523
375.6771, 1234.024
376.1592, 1237.766
376.6414, 1246.755
377.1235, 1260.296
377.6056, 1271.283
378.0877, 1279.127
378.5698, 1286.689
379.0519, 1296.982
379.5341, 1309.944
380.0162, 1322.218
380.4983, 1332.906
380.9804, 1342.904
381.4625, 1353.666
381.9446, 1365.316
382.4268, 1377.365
382.9089, 1388.862
383.3910, 1400.482
383.8731, 1415.342
384.3552, 1434.013
384.8373, 1453.915
385.3195, 1471.996
385.8016, 1488.745
386.2837, 1505.985
386.7658, 1525.444
387.2479, 1545.134
387.7300, 1562.383
388.2122, 1577.207
388.6943, 1591.936
389.1764, 1607.973
389.6585, 1624.925
390.1406, 1642.177
390.6227, 1660.669
391.1049, 1677.813
391.5870, 1691.150
392.0691, 1701.493
392.5512, 1711.289
393.0333, 1721.166
393.5154, 1731.202
393.9976, 1741.385
394.4797, 1751.612
394.9618, 1762.337
395.4439, 1774.190
395.9260, 1786.494
396.4081, 1798.303
396.8903, 1811.177
397.3724, 1821.962
397.8545, 1829.287
398.3366, 1833.011
398.8188, 1836.799
399.3009, 1843.819
399.7830, 1849.017
400.2651, 1849.260
400.7472, 1844.250
401.2293, 1834.605
401.7115, 1819.580
402.1936, 1799.970
402.6757, 1778.070
403.1578, 1753.607
403.6399, 1727.173
404.1220, 1698.973
404.6042, 1668.536
405.0863, 1638.089
405.5684, 1607.875
406.0505, 1577.784
406.5326, 1547.360
407.0147, 1516.171
407.4969, 1487.172
407.9790, 1460.876
408.4611, 1437.225
408.9432, 1416.110
409.4253, 1397.711
409.9074, 1381.242
410.3896, 1366.179
410.8717, 1352.462
411.3538, 1339.670
411.8359, 1327.711
412.3180, 1317.072
412.8001, 1308.702
413.2823, 1302.475
413.7644, 1297.260
414.2465, 1292.608
414.7286, 1288.605
415.2107, 1285.390
415.6928, 1283.004
416.1750, 1280.974
416.6571, 1279.088
417.1392, 1277.312
417.6213, 1275.547
418.1034, 1273.942
418.5855, 1272.167
419.0677, 1269.252
419.5498, 1265.783
420.0319, 1264.064
420.5140, 1266.380
420.9961, 1269.758
421.4782, 1272.589
421.9604, 1274.869
422.4425, 1275.988
422.9246, 1274.845
423.4067, 1272.721
423.8889, 1271.358
424.3710, 1271.658
424.8531, 1272.018
425.3352, 1271.934
425.8173, 1271.398
426.2994, 1271.594
426.7816, 1272.755
427.2637, 1274.415
427.7458, 1276.373
428.2279, 1279.029
428.7100, 1280.994
429.1921, 1281.883
429.6743, 1282.213
430.1564, 1283.089
430.6385, 1284.512
431.1206, 1286.514
431.6027, 1289.635
432.0848, 1293.778
432.5670, 1295.243
433.0491, 1293.263
433.5312, 1291.790
434.0133, 1296.028
434.4954, 1305.103
434.9775, 1313.125
435.4597, 1318.600
435.9418, 1322.348
436.4239, 1325.344
436.9060, 1327.639
437.3881, 1329.703
437.8702, 1331.453
438.3524, 1333.275
438.8345, 1336.087
439.3166, 1340.213
439.7987, 1343.682
440.2808, 1344.930
440.7629, 1344.477
441.2451, 1343.133
441.7272, 1340.195
442.2093, 1337.352
442.6914, 1335.937
443.1735, 1335.662
443.6556, 1334.563
444.1378, 1331.418
444.6199, 1327.573
445.1020, 1323.757
445.5841, 1319.466
446.0662, 1316.461
446.5483, 1315.911
447.0305, 1316.625
447.5126, 1316.577
447.9947, 1313.884
448.4768, 1312.685
448.9590, 1314.388
449.4411, 1319.059
449.9232, 1322.766
450.4053, 1325.283
450.8874, 1327.178
451.3695, 1328.610
451.8517, 1329.265
452.3338, 1330.908
452.8159, 1333.990
453.2980, 1337.740
453.7801, 1340.470
454.2622, 1342.059
454.7444, 1343.986
455.2265, 1347.019
455.7086, 1350.951
456.1907, 1355.080
456.6728, 1359.532
457.1549, 1363.229
457.6371, 1364.995
458.1192, 1365.321
458.6013, 1365.438
459.0834, 1365.703
459.5655, 1365.750
460.0476, 1364.771
460.5298, 1363.168
461.0119, 1362.179
461.4940, 1362.624
461.9761, 1363.790
462.4582, 1364.865
462.9403, 1365.708
463.4225, 1367.787
463.9046, 1373.484
464.3867, 1379.980
464.8688, 1384.476
465.3509, 1383.516
465.8330, 1383.737
466.3152, 1386.605
466.7973, 1391.721
467.2794, 1397.600
467.7615, 1403.869
468.2436, 1411.250
468.7257, 1420.122
469.2079, 1430.555
469.6900, 1441.522
470.1721, 1452.556
470.6542, 1464.536
471.1363, 1478.848
471.6184, 1496.378
472.1006, 1512.689
472.5827, 1526.888
473.0648, 1539.440
473.5469, 1551.203
474.0291, 1562.018
474.5112, 1573.947
474.9933, 1588.825
475.4754, 1605.955
475.9575, 1622.130
476.4396, 1637.111
476.9218, 1652.231
477.4039, 1669.128
477.8860, 1687.129
478.3681, 1704.442
478.8502, 1719.991
479.3323, 1735.224
479.8145, 1751.815
480.2966, 1769.497
480.7787, 1786.557
481.2608, 1803.335
481.7429, 1818.681
482.2250, 1831.550
482.7072, 1841.545
483.1893, 1850.669
483.6714, 1861.923
484.1535, 1871.636
484.6356, 1876.167
485.1177, 1873.358
485.5999, 1867.295
486.0820, 1858.469
486.5641, 1846.932
487.0462, 1832.152
487.5283, 1813.461
488.0104, 1792.424
488.4926, 1769.096
488.9747, 1743.383
489.4568, 1717.113
489.9389, 1690.161
490.4210, 1663.256
490.9031, 1637.586
491.3853, 1613.040
491.8674, 1589.194
492.3495, 1565.796
492.8316, 1543.472
493.3137, 1523.245
493.7958, 1505.081
494.2780, 1489.804
494.7601, 1479.034
495.2422, 1471.260
495.7243, 1463.717
496.2064, 1456.137
496.6885, 1450.117
497.1707, 1448.084
497.6528, 1447.883
498.1349, 1446.477
498.6170, 1442.079
499.0992, 1437.626
499.5813, 1433.931
500.0634, 1431.344
500.5455, 1430.666
501.0276, 1433.221
501.5097, 1436.772
501.9919, 1441.077
502.4740, 1446.486
502.9561, 1449.713
503.4382, 1447.988
503.9203, 1445.851
504.4024, 1446.642
504.8846, 1452.836
505.3667, 1456.741
505.8488, 1457.098
506.3309, 1455.419
506.8130, 1455.020
507.2951, 1456.189
507.7773, 1457.331
508.2594, 1457.515
508.7415, 1457.125
509.2236, 1459.213
509.7057, 1464.069
510.1878, 1467.772
510.6700, 1467.620
511.1521, 1463.762
511.6342, 1456.057
512.1163, 1443.870
512.5984, 1430.375
513.0806, 1419.403
513.5627, 1409.617
514.0448, 1398.219
514.5269, 1382.246
515.0090, 1365.664
515.4911, 1350.997
515.9733, 1338.038
516.4554, 1325.689
516.9375, 1312.359
517.4196, 1300.193
517.9017, 1290.880
518.3839, 1286.400
518.8660, 1280.296
519.3481, 1270.834
519.8302, 1259.922
520.3123, 1249.534
520.7944, 1238.619
521.2766, 1230.148
521.7587, 1225.309
522.2408, 1223.194
522.7229, 1219.839
523.2050, 1214.761
523.6871, 1210.312
524.1693, 1208.263
524.6514, 1208.380
525.1335, 1206.710
525.6156, 1202.983
526.0977, 1199.220
526.5798, 1197.894
527.0620, 1198.183
527.5441, 1197.509
528.0262, 1194.764
528.5083, 1191.853
528.9904, 1191.072
529.4725, 1191.745
529.9547, 1192.261
530.4368, 1191.308
530.9189, 1190.317
531.4010, 1189.955
531.8831, 1190.265
532.3652, 1191.660
532.8474, 1196.021
533.3295, 1200.302
533.8116, 1202.453
534.2937, 1199.724
534.7758, 1199.191
535.2579, 1202.356
535.7401, 1207.155
536.2222, 1210.520
536.7043, 1212.021
537.1864, 1213.243
537.6685, 1214.358
538.1506, 1215.510
538.6328, 1217.474
539.1149, 1220.463
539.5970, 1223.165
540.0791, 1224.038
540.5612, 1223.771
541.0433, 1225.891
541.5255, 1230.703
542.0076, 1236.075
542.4897, 1240.416
542.9718, 1243.743
543.4539, 1245.960
543.9360, 1246.220
544.4182, 1246.723
544.9003, 1249.557
545.3824, 1253.909
545.8645, 1257.991
546.3466, 1260.948
546.8287, 1263.572
547.3109, 1266.539
547.7930, 1269.862
548.2751, 1271.740
548.7572, 1270.254
549.2393, 1268.536
549.7214, 1268.395
550.2036, 1271.136
550.6857, 1272.431
551.1678, 1271.548
551.6499, 1269.996
552.1320, 1270.123
552.6141, 1272.310
553.0963, 1273.726
553.5784, 1273.517
554.0605, 1272.307
554.5426, 1271.481
555.0247, 1271.053
555.5068, 1271.229
555.9890, 1272.663
556.4711, 1274.604
556.9532, 1275.548
557.4353, 1275.436
557.9174, 1275.355
558.3995, 1276.717
558.8817, 1278.265
559.3638, 1278.384
559.8459, 1275.552
560.3281, 1273.591
560.8102, 1275.356
561.2923, 1278.686
561.7744, 1280.173
562.2565, 1277.425
562.7386, 1274.723
563.2208, 1272.862
563.7029, 1271.790
564.1850, 1271.008
564.6671, 1270.563
565.1492, 1270.358
565.6313, 1270.395
566.1135, 1270.699
566.5956, 1270.817
567.0777, 1270.580
567.5598, 1270.752
568.0419, 1272.146
568.5240, 1274.647
569.0062, 1277.954
569.4883, 1282.277
569.9704, 1286.636
570.4525, 1289.441
570.9346, 1291.249
571.4167, 1293.360
571.8989, 1296.935
572.3810, 1300.617
572.8631, 1303.207
573.3452, 1304.906
573.8273, 1307.267
574.3094, 1311.181
574.7916, 1315.654
575.2737, 1320.249
575.7558, 1325.060
576.2379, 1329.490
576.7200, 1332.826
577.2021, 1336.292
577.6843, 1341.182
578.1664, 1348.131
578.6485, 1354.509
579.1306, 1360.177
579.6127, 1365.045
580.0948, 1368.695
580.5770, 1371.103
581.0591, 1374.132
581.5412, 1378.719
582.0233, 1384.262
582.5054, 1389.490
582.9875, 1394.390
583.4697, 1399.419
583.9518, 1404.483
584.4339, 1409.984
584.9160, 1416.261
585.3981, 1423.333
585.8802, 1431.488
586.3624, 1442.488
586.8445, 1453.834
587.3266, 1463.208
587.8087, 1468.151
588.2908, 1473.672
588.7729, 1481.130
589.2551, 1489.302
589.7372, 1496.128
590.2193, 1501.207
590.7014, 1505.658
591.1835, 1509.380
591.6656, 1512.651
592.1478, 1517.019
592.6299, 1522.551
593.1120, 1528.289
593.5941, 1533.749
594.0762, 1538.929
594.5583, 1543.495
595.0405, 1547.336
595.5226, 1551.977
596.0047, 1558.778
596.4868, 1567.205
596.9689, 1576.417
597.4510, 1585.771
597.9332, 1597.123
598.4153, 1612.432
598.8974, 1630.147
599.3795, 1648.407
599.8616, 1667.013
600.3438, 1685.906
600.8259, 1704.778
601.3080, 1723.835
601.7901, 1743.792
602.2722, 1765.967
602.7543, 1786.542
603.2365, 1804.365
603.7186, 1819.287
604.2007, 1831.907
604.6828, 1841.842
605.1649, 1850.565
605.6470, 1859.319
606.1292, 1867.793
606.6113, 1875.185
607.0934, 1881.265
607.5755, 1886.187
608.0576, 1888.530
608.5398, 1890.054
609.0219, 1893.718
609.5040, 1901.146
609.9861, 1910.115
610.4683, 1919.607
610.9504, 1929.744
611.4325, 1940.928
611.9146, 1953.634
612.3967, 1966.955
612.8788, 1980.920
613.3610, 1995.394
613.8431, 2010.417
614.3252, 2026.948
614.8073, 2042.281
615.2894, 2055.205
615.7715, 2065.558
616.2537, 2075.600
616.7358, 2085.626
617.2179, 2093.685
617.7000, 2098.068
618.1821, 2098.748
618.6642, 2095.753
619.1464, 2089.050
619.6285, 2078.577
620.1106, 2063.461
620.5927, 2044.643
621.0748, 2023.849
621.5569, 1999.415
622.0391, 1975.207
622.5212, 1952.747
623.0033, 1931.697
623.4854, 1910.982
623.9675, 1891.232
624.4496, 1870.969
624.9318, 1849.228
625.4139, 1826.102
625.8960, 1805.691
626.3781, 1789.531
626.8602, 1773.050
627.3423, 1753.059
627.8245, 1729.679
628.3066, 1707.095
628.7887, 1685.430
629.2708, 1664.328
629.7529, 1643.518
630.2350, 1623.032
630.7172, 1602.198
631.1993, 1580.275
631.6814, 1559.622
632.1635, 1542.533
632.6456, 1527.957
633.1277, 1513.933
633.6099, 1499.318
634.0920, 1485.701
634.5741, 1473.045
635.0562, 1461.725
635.5383, 1452.547
636.0204, 1446.326
636.5026, 1441.118
636.9847, 1436.492
637.4668, 1432.464
637.9489, 1428.831
638.4310, 1425.712
638.9131, 1422.419
639.3953, 1418.806
639.8774, 1414.658
640.3595, 1408.798
640.8416, 1401.068
641.3237, 1392.876
641.8058, 1384.747
642.2880, 1377.372
642.7701, 1371.967
643.2522, 1368.887
643.7343, 1367.341
644.2164, 1367.324
644.6985, 1368.426
645.1807, 1370.103
645.6628, 1373.054
646.1449, 1375.568
646.6270, 1377.215
647.1091, 1378.330
647.5912, 1379.583
648.0734, 1380.699
648.5555, 1382.801
649.0376, 1386.498
649.5197, 1391.465
650.0018, 1396.266
650.4839, 1400.966
650.9661, 1405.500
651.4482, 1410.000
651.9303, 1414.308
652.4124, 1417.944
652.8945, 1420.919
653.3766, 1424.245
653.8588, 1428.719
654.3409, 1433.752
654.8230, 1439.010
655.3051, 1444.634
655.7872, 1449.807
656.2693, 1453.358
656.7515, 1456.934
657.2336, 1462.117
657.7158, 1469.518
658.1979, 1477.265
658.6800, 1485.531
659.1621, 1493.681
659.6442, 1500.722
660.1263, 1506.610
660.6085, 1511.227
661.0906, 1513.957
661.5727, 1515.989
662.0548, 1520.165
662.5369, 1525.733
663.0190, 1529.836
663.5012, 1530.683
663.9833, 1529.709
664.4654, 1527.959
664.9475, 1525.452
665.4296, 1521.776
665.9117, 1516.447
666.3939, 1510.284
666.8760, 1503.698
667.3581, 1496.768
667.8402, 1488.978
668.3223, 1479.736
668.8044, 1470.481
669.2866, 1462.598
669.7687, 1456.131
670.2508, 1448.746
670.7329, 1440.123
671.2150, 1431.245
671.6971, 1422.898
672.1793, 1415.027
672.6614, 1407.847
673.1435, 1401.694
673.6256, 1395.199
674.1077, 1386.421
674.5898, 1376.671
675.0720, 1368.114
675.5541, 1362.480
676.0362, 1356.815
676.5183, 1349.705
677.0004, 1342.079
677.4825, 1336.501
677.9647, 1334.319
678.4468, 1331.706
678.9289, 1327.350
679.4110, 1321.809
679.8931, 1317.753
680.3752, 1315.306
680.8574, 1312.724
681.3395, 1308.119
681.8216, 1302.904
682.3037, 1300.877
682.7858, 1301.774
683.2679, 1302.047
683.7501, 1298.655
684.2322, 1294.029
684.7143, 1289.985
685.1964, 1286.790
685.6785, 1284.102
686.1606, 1281.910
686.6428, 1280.186
687.1249, 1278.897
687.6070, 1278.212
688.0891, 1277.679
688.5712, 1277.510
689.0533, 1277.181
689.5355, 1276.097
690.0176, 1274.269
690.4997, 1271.609
690.9818, 1267.670
691.4639, 1264.182
691.9460, 1264.749
692.4282, 1267.563
692.9103, 1268.540
693.3924, 1264.059
693.8745, 1259.750
694.3566, 1259.317
694.8387, 1261.485
695.3209, 1263.269
695.8030, 1263.910
696.2851, 1264.123
696.7672, 1263.913
697.2493, 1263.377
697.7314, 1262.943
698.2136, 1262.419
698.6957, 1262.670
699.1778, 1264.674
699.6599, 1267.745
700.1420, 1268.502
700.6241, 1267.060
701.1063, 1265.324
701.5884, 1264.334
702.0705, 1263.979
702.5526, 1264.396
703.0347, 1265.588
703.5168, 1266.429
703.9990, 1266.084
704.4811, 1265.384
704.9632, 1264.844
705.4453, 1264.448
705.9274, 1264.499
706.4095, 1265.588
706.8917, 1266.452
707.3738, 1265.388
707.8560, 1261.927
708.3381, 1261.544
708.8202, 1265.226
709.3023, 1270.020
709.7844, 1272.456
710.2665, 1272.984
710.7487, 1272.871
711.2308, 1272.312
711.7129, 1271.498
712.1950, 1270.134
712.6771, 1268.728
713.1592, 1268.046
713.6414, 1268.454
714.1235, 1269.459
714.6056, 1272.054
715.0877, 1274.951
715.5698, 1275.350
716.0519, 1272.319
716.5341, 1269.155
717.0162, 1266.470
717.4983, 1264.320
717.9804, 1263.049
718.4625, 1262.613
718.9446, 1262.552
719.4268, 1262.909
719.9089, 1263.334
720.3910, 1263.399
720.8731, 1263.139
721.3552, 1262.695
721.8373, 1262.297
722.3195, 1261.609
722.8016, 1260.150
723.2837, 1257.928
723.7658, 1256.639
724.2479, 1257.080
724.7300, 1257.462
725.2122, 1256.720
725.6943, 1254.825
726.1764, 1254.490
726.6585, 1255.922
727.1406, 1257.587
727.6227, 1258.636
728.1049, 1258.962
728.5870, 1258.056
729.0691, 1255.847
729.5512, 1253.450
730.0333, 1251.003
730.5154, 1249.112
730.9976, 1248.535
731.4797, 1249.825
731.9618, 1251.041
732.4439, 1251.464
732.9260, 1251.970
733.4081, 1253.506
733.8903, 1256.930
734.3724, 1258.170
734.8545, 1256.362
735.3366, 1253.939
735.8187, 1254.572
736.3008, 1257.472
736.7830, 1258.812
737.2651, 1257.421
737.7472, 1255.537
738.2293, 1255.350
738.7114, 1256.131
739.1935, 1256.821
739.6757, 1257.884
740.1578, 1257.769
740.6399, 1254.881
741.1220, 1250.848
741.6041, 1248.517
742.0862, 1248.755
742.5684, 1248.720
743.0505, 1247.838
743.5326, 1246.537
744.0147, 1245.442
744.4968, 1244.628
744.9789, 1245.097
745.4611, 1247.801
745.9432, 1251.269
746.4253, 1254.810
746.9074, 1257.647
747.3895, 1257.692
747.8716, 1249.317
748.3538, 1242.732
748.8359, 1244.371
749.3180, 1252.272
749.8001, 1255.779
750.2822, 1251.866
750.7643, 1248.372
751.2465, 1248.025
751.7286, 1249.960
752.2107, 1249.507
752.6928, 1246.599
753.1749, 1244.680
753.6570, 1246.706
754.1392, 1250.481
754.6213, 1252.388
755.1034, 1252.659
755.5855, 1252.645
756.0676, 1252.060
756.5498, 1252.257
757.0319, 1254.734
757.5140, 1259.604
757.9962, 1262.407
758.4783, 1261.322
758.9604, 1260.392
759.4425, 1261.648
759.9246, 1264.997
760.4067, 1267.275
760.8889, 1268.369
761.3710, 1269.280
761.8531, 1270.994
762.3352, 1272.967
762.8173, 1274.169
763.2994, 1274.559
763.7816, 1274.529
764.2637, 1274.411
764.7458, 1273.915
765.2279, 1272.408
765.7100, 1269.232
766.1921, 1268.335
766.6743, 1271.440
767.1564, 1274.975
767.6385, 1276.559
768.1206, 1275.932
768.6027, 1276.037
769.0848, 1276.989
769.5670, 1278.014
770.0491, 1278.096
770.5312, 1277.804
771.0133, 1278.447
771.4954, 1280.253
771.9775, 1281.976
772.4597, 1282.966
772.9418, 1283.423
773.4239, 1283.546
773.9060, 1283.443
774.3881, 1282.669
774.8702, 1280.565
775.3524, 1278.554
775.8345, 1277.958
776.3166, 1278.915
776.7987, 1279.881
777.2808, 1280.845
777.7629, 1281.417
778.2451, 1280.717
778.7272, 1279.410
779.2093, 1278.818
779.6914, 1279.253
780.1735, 1280.140
780.6556, 1281.943
781.1378, 1283.582
781.6199, 1283.947
782.1020, 1281.519
782.5841, 1280.071
783.0662, 1280.083
783.5483, 1280.513
784.0305, 1279.942
784.5126, 1278.286
784.9947, 1278.244
785.4768, 1280.453
785.9589, 1282.820
786.4410, 1282.656
786.9232, 1280.980
787.4053, 1279.723
787.8874, 1279.679
788.3695, 1279.186
788.8516, 1276.189
789.3337, 1272.887
789.8159, 1271.869
790.2980, 1275.328
790.7801, 1277.418
791.2622, 1277.546
791.7443, 1276.831
792.2264, 1276.635
792.7086, 1276.934
793.1907, 1277.513
793.6728, 1278.463
794.1549, 1279.195
794.6370, 1278.576
795.1191, 1277.432
795.6013, 1277.170
796.0834, 1278.705
796.5655, 1280.103
797.0476, 1280.959
797.5297, 1281.180
798.0118, 1280.607
798.4940, 1278.616
798.9761, 1277.248
799.4582, 1276.538
799.9403, 1276.667
800.4224, 1278.379
800.9045, 1281.332
801.3867, 1283.498
801.8688, 1284.358
802.3509, 1284.719
802.8330, 1285.098
803.3151, 1285.553
803.7972, 1286.094
804.2794, 1286.012
804.7615, 1287.196
805.2436, 1291.964
805.7258, 1297.113
806.2079, 1298.870
806.6900, 1295.945
807.1721, 1294.887
807.6542, 1296.757
808.1364, 1299.541
808.6185, 1300.748
809.1006, 1300.668
809.5827, 1300.101
810.0648, 1299.145
810.5469, 1297.996
811.0291, 1296.281
811.5112, 1294.686
811.9933, 1294.000
812.4754, 1295.047
812.9575, 1296.015
813.4396, 1296.891
813.9218, 1297.584
814.4039, 1297.644
814.8860, 1296.951
815.3681, 1298.029
815.8502, 1301.486
816.3323, 1305.340
816.8145, 1306.999
817.2966, 1307.481
817.7787, 1308.809
818.2608, 1311.905
818.7429, 1314.310
819.2250, 1313.790
819.7072, 1312.614
820.1893, 1313.178
820.6714, 1317.070
821.1535, 1319.388
821.6356, 1319.884
822.1177, 1319.231
822.5999, 1317.488
823.0820, 1314.985
823.5641, 1314.268
824.0462, 1315.790
824.5283, 1317.602
825.0104, 1317.461
825.4926, 1316.803
825.9747, 1317.478
826.4568, 1320.399
826.9389, 1322.636
827.4210, 1323.693
827.9031, 1323.676
828.3853, 1322.270
828.8674, 1318.856
829.3495, 1317.329
829.8316, 1318.040
830.3137, 1319.264
830.7958, 1319.325
831.2780, 1318.672
831.7601, 1318.147
832.2422, 1317.843
832.7243, 1317.944
833.2064, 1318.988
833.6885, 1320.212
834.1707, 1320.985
834.6528, 1321.064
835.1349, 1321.580
835.6170, 1322.941
836.0991, 1324.068
836.5812, 1324.112
837.0634, 1323.150
837.5455, 1322.221
838.0276, 1321.307
838.5097, 1320.938
838.9918, 1322.559
839.4739, 1324.253
839.9561, 1323.391
840.4382, 1319.851
840.9203, 1317.210
841.4024, 1317.222
841.8845, 1317.864
842.3666, 1318.420
842.8488, 1318.879
843.3309, 1318.579
843.8130, 1317.452
844.2951, 1316.010
844.7772, 1314.150
845.2593, 1312.331
845.7415, 1312.099
846.2236, 1313.110
846.7057, 1313.465
847.1878, 1311.496
847.6699, 1309.156
848.1520, 1307.404
848.6342, 1306.272
849.1163, 1305.444
849.5984, 1304.844
850.0805, 1304.664
850.5626, 1304.998
851.0447, 1305.761
851.5269, 1306.526
852.0090, 1307.368
852.4911, 1309.026
852.9732, 1313.189
853.4553, 1317.006
853.9374, 1316.767
854.4196, 1314.163
854.9017, 1313.381
855.3839, 1318.410
855.8660, 1321.905
856.3481, 1321.773
856.8302, 1319.617
857.3123, 1318.895
857.7944, 1319.673
858.2766, 1321.137
858.7587, 1323.352
859.2408, 1325.617
859.7229, 1326.840
860.2050, 1327.351
860.6871, 1327.717
861.1693, 1327.485
861.6514, 1328.198
862.1335, 1331.404
862.6156, 1335.471
863.0977, 1338.141
863.5798, 1338.984
864.0620, 1339.558
864.5441, 1339.716
865.0262, 1340.276
865.5083, 1343.218
865.9904, 1347.433
866.4725, 1348.900
866.9547, 1346.269
867.4368, 1344.614
867.9189, 1348.484
868.4010, 1354.439
868.8831, 1359.231
869.3652, 1361.613
869.8474, 1365.260
870.3295, 1371.606
870.8116, 1376.935
871.2937, 1377.016
871.7758, 1372.594
872.2579, 1372.670
872.7401, 1377.546
873.2222, 1383.058
873.7043, 1386.112
874.1864, 1388.037
874.6685, 1390.091
875.1506, 1392.405
875.6328, 1394.372
876.1149, 1395.195
876.5970, 1396.337
877.0791, 1398.508
877.5612, 1401.561
878.0433, 1403.940
878.5255, 1405.612
879.0076, 1407.272
879.4897, 1409.607
879.9718, 1411.947
880.4539, 1413.501
880.9360, 1414.260
881.4182, 1414.190
881.9003, 1411.614
882.3824, 1410.044
882.8645, 1411.492
883.3466, 1414.689
883.8287, 1416.637
884.3109, 1417.344
884.7930, 1416.669
885.2751, 1414.263
885.7572, 1411.002
886.2393, 1408.006
886.7214, 1405.319
887.2036, 1403.137
887.6857, 1401.791
888.1678, 1400.511
888.6499, 1399.191
889.1320, 1397.647
889.6141, 1395.582
890.0963, 1392.672
890.5784, 1390.237
891.0605, 1388.411
891.5426, 1386.970
892.0247, 1385.901
892.5068, 1384.965
892.9890, 1383.393
893.4711, 1381.070
893.9532, 1378.394
894.4353, 1375.173
894.9174, 1372.077
895.3995, 1369.667
895.8817, 1368.169
896.3638, 1366.653
896.8459, 1364.963
897.3280, 1363.579
897.8101, 1363.132
898.2922, 1363.309
898.7744, 1362.099
899.2565, 1359.647
899.7386, 1357.666
900.2207, 1358.474
900.7028, 1359.091
901.1849, 1356.315
901.6671, 1350.803
902.1492, 1347.930
902.6313, 1350.335
903.1134, 1351.752
903.5955, 1350.255
904.0776, 1346.921
904.5598, 1344.673
905.0419, 1343.409
905.5240, 1342.087
906.0062, 1339.932
906.4883, 1338.247
906.9704, 1338.636
907.4525, 1340.175
907.9346, 1341.374
908.4167, 1342.186
908.8989, 1342.086
909.3810, 1340.645
909.8631, 1338.759
910.3452, 1337.360
910.8273, 1336.461
911.3094, 1336.529
911.7916, 1337.712
912.2737, 1339.010
912.7558, 1339.510
913.2379, 1339.611
913.7200, 1339.824
914.2021, 1340.346
914.6843, 1340.270
915.1664, 1339.394
915.6485, 1337.991
916.1306, 1335.826
916.6127, 1333.033
917.0948, 1332.247
917.5770, 1333.458
918.0591, 1334.423
918.5412, 1333.425
919.0233, 1331.650
919.5054, 1330.026
919.9875, 1328.666
920.4697, 1327.841
920.9518, 1328.199
921.4339, 1328.398
921.9160, 1328.132
922.3981, 1327.510
922.8802, 1326.708
923.3624, 1325.737
923.8445, 1325.015
924.3266, 1324.782
924.8087, 1324.553
925.2908, 1322.945
925.7729, 1321.288
926.2551, 1321.682
926.7372, 1326.917
927.2193, 1330.139
927.7014, 1329.743
928.1835, 1328.173
928.6656, 1327.479
929.1478, 1327.675
929.6299, 1328.506
930.1120, 1330.016
930.5941, 1331.363
931.0762, 1331.497
931.5583, 1331.297
932.0405, 1331.623
932.5226, 1332.550
933.0047, 1333.961
933.4868, 1336.672
933.9689, 1338.753
934.4510, 1339.247
934.9332, 1338.545
935.4153, 1338.623
935.8974, 1339.446
936.3795, 1340.686
936.8616, 1342.842
937.3438, 1344.550
937.8259, 1343.584
938.3080, 1341.257
938.7901, 1340.221
939.2722, 1342.682
939.7543, 1344.361
940.2365, 1344.343
940.7186, 1343.903
941.2007, 1345.425
941.6828, 1348.588
942.1649, 1348.972
942.6470, 1345.649
943.1292, 1342.312
943.6113, 1343.234
944.0934, 1345.264
944.5755, 1344.558
945.0576, 1339.578
945.5397, 1338.598
946.0219, 1344.659
946.5040, 1350.622
946.9861, 1352.708
947.4682, 1351.552
947.9503, 1350.366
948.4324, 1349.215
948.9146, 1348.717
949.3967, 1349.409
949.8788, 1350.721
950.3609, 1352.487
950.8430, 1354.552
951.3251, 1356.398
951.8073, 1357.403
952.2894, 1359.452
952.7715, 1363.291
953.2536, 1367.553
953.7357, 1370.150
954.2179, 1371.229
954.7000, 1370.940
955.1821, 1368.871
955.6642, 1367.739
956.1464, 1370.484
956.6285, 1374.370
957.1106, 1376.728
957.5927, 1376.724
958.0748, 1378.180
958.5569, 1381.314
959.0391, 1385.319
959.5212, 1390.660
960.0033, 1396.281
960.4854, 1397.721
960.9675, 1395.915
961.4496, 1396.167
961.9318, 1403.881
962.4139, 1411.732
962.8960, 1415.457
963.3781, 1416.516
963.8602, 1419.169
964.3423, 1423.786
964.8245, 1428.372
965.3066, 1432.519
965.7887, 1436.640
966.2708, 1441.183
966.7529, 1446.223
967.2350, 1451.932
967.7172, 1458.723
968.1993, 1465.057
968.6814, 1469.332
969.1635, 1473.881
969.6456, 1480.472
970.1277, 1489.241
970.6099, 1497.709
971.0920, 1505.767
971.5741, 1514.307
972.0562, 1523.517
972.5383, 1533.663
973.0204, 1545.541
973.5026, 1558.808
973.9847, 1572.269
974.4668, 1584.757
974.9489, 1598.316
975.4310, 1613.093
975.9131, 1629.500
976.3953, 1648.958
976.8774, 1671.429
977.3595, 1693.623
977.8416, 1714.327
978.3237, 1735.885
978.8058, 1759.921
979.2880, 1786.489
979.7701, 1815.620
980.2522, 1847.183
980.7343, 1882.289
981.2164, 1921.746
981.6985, 1963.898
982.1807, 2008.781
982.6628, 2055.882
983.1449, 2102.015
983.6270, 2147.775
984.1091, 2196.969
984.5912, 2252.587
985.0734, 2311.386
985.5555, 2371.501
986.0376, 2434.028
986.5197, 2501.723
987.0018, 2576.089
987.4839, 2650.245
987.9661, 2722.781
988.4482, 2796.153
988.9303, 2873.954
989.4124, 2954.118
989.8945, 3032.678
990.3766, 3109.272
990.8588, 3182.198
991.3409, 3254.643
991.8230, 3319.331
992.3051, 3373.852
992.7872, 3417.343
993.2693, 3448.363
993.7515, 3466.994
994.2336, 3470.568
994.7157, 3456.938
995.1978, 3427.949
995.6799, 3383.425
996.1620, 3324.975
996.6442, 3257.102
997.1263, 3177.509
997.6084, 3092.609
998.0905, 3000.241
998.5726, 2906.587
999.0547, 2818.446
999.5369, 2734.794
1000.019, 2650.641
1000.501, 2565.133
1000.983, 2484.466
1001.465, 2413.785
1001.947, 2348.147
1002.430, 2283.590
1002.912, 2219.521
1003.394, 2165.244
1003.876, 2121.948
1004.358, 2082.930
1004.840, 2044.857
1005.322, 2009.124
1005.804, 1977.702
1006.287, 1950.345
1006.769, 1925.671
1007.251, 1904.042
1007.733, 1884.131
1008.215, 1865.240
1008.697, 1847.776
1009.179, 1831.746
1009.661, 1817.119
1010.143, 1805.377
1010.626, 1796.518
1011.108, 1789.266
1011.590, 1783.030
1012.072, 1777.395
1012.554, 1771.923
1013.036, 1766.626
1013.518, 1761.595
1014.000, 1756.719
1014.483, 1752.359
1014.965, 1748.778
1015.447, 1745.619
1015.929, 1741.804
1016.411, 1737.683
1016.893, 1734.481
1017.375, 1732.451
1017.857, 1731.500
1018.339, 1732.373
1018.822, 1733.720
1019.304, 1734.276
1019.786, 1733.843
1020.268, 1733.758
1020.750, 1733.906
1021.232, 1735.011
1021.714, 1737.818
1022.196, 1741.684
1022.679, 1745.435
1023.161, 1749.366
1023.643, 1754.311
1024.125, 1761.002
1024.607, 1768.166
1025.089, 1775.290
1025.571, 1783.079
1026.053, 1792.804
1026.535, 1804.153
1027.018, 1815.656
1027.500, 1827.095
1027.982, 1839.609
1028.464, 1854.590
1028.946, 1870.658
1029.428, 1886.396
1029.910, 1901.927
1030.392, 1918.828
1030.875, 1937.183
1031.357, 1957.156
1031.839, 1979.333
1032.321, 2002.698
1032.803, 2024.304
1033.285, 2045.709
1033.767, 2069.862
1034.249, 2098.460
1034.731, 2128.132
1035.214, 2158.872
1035.696, 2189.633
1036.178, 2218.800
1036.660, 2246.231
1037.142, 2281.840
1037.624, 2324.900
1038.106, 2369.951
1038.588, 2412.222
1039.071, 2455.878
1039.553, 2504.310
1040.035, 2557.240
1040.517, 2613.714
1040.999, 2675.353
1041.481, 2736.992
1041.963, 2798.586
1042.445, 2860.596
1042.927, 2924.614
1043.410, 2990.230
1043.892, 3056.702
1044.374, 3124.651
1044.856, 3194.363
1045.338, 3271.447
1045.820, 3345.104
1046.302, 3409.826
1046.784, 3466.715
1047.266, 3523.333
1047.749, 3579.254
1048.231, 3624.953
1048.713, 3657.641
1049.195, 3676.199
1049.677, 3680.883
1050.159, 3670.461
1050.641, 3642.221
1051.123, 3596.039
1051.606, 3535.200
1052.088, 3458.658
1052.570, 3371.037
1053.052, 3270.921
1053.534, 3162.600
1054.016, 3050.265
1054.498, 2935.671
1054.980, 2825.854
1055.463, 2721.675
1055.945, 2625.228
1056.427, 2537.962
1056.909, 2457.941
1057.391, 2382.161
1057.873, 2311.003
1058.355, 2249.063
1058.837, 2197.643
1059.319, 2148.123
1059.802, 2092.201
1060.284, 2038.339
1060.766, 1993.933
1061.248, 1958.768
1061.730, 1926.028
1062.212, 1895.470
1062.694, 1868.685
1063.176, 1846.895
1063.658, 1828.552
1064.141, 1812.804
1064.623, 1798.257
1065.105, 1782.070
1065.587, 1760.619
1066.069, 1744.735
1066.551, 1737.271
1067.033, 1732.122
1067.515, 1724.497
1067.998, 1715.290
1068.480, 1709.830
1068.962, 1707.718
1069.444, 1706.966
1069.926, 1707.306
1070.408, 1707.854
1070.890, 1707.575
1071.372, 1707.572
1071.854, 1709.716
1072.337, 1714.217
1072.819, 1718.684
1073.301, 1722.767
1073.783, 1727.815
1074.265, 1736.387
1074.747, 1745.583
1075.229, 1751.290
1075.711, 1753.792
1076.193, 1761.236
1076.676, 1776.552
1077.158, 1790.256
1077.640, 1799.392
1078.122, 1806.322
1078.604, 1815.375
1079.086, 1825.295
1079.568, 1833.579
1080.051, 1839.844
1080.533, 1844.006
1081.015, 1845.874
1081.497, 1845.679
1081.979, 1843.774
1082.461, 1839.892
1082.943, 1831.364
1083.425, 1818.603
1083.907, 1805.172
1084.390, 1793.222
1084.872, 1780.415
1085.354, 1765.088
1085.836, 1748.166
1086.318, 1730.191
1086.800, 1710.464
1087.282, 1693.292
1087.764, 1678.928
1088.246, 1665.500
1088.729, 1650.717
1089.211, 1636.644
1089.693, 1625.390
1090.175, 1616.783
1090.657, 1610.008
1091.139, 1605.355
1091.621, 1601.795
1092.103, 1599.716
1092.586, 1597.608
1093.068, 1592.527
1093.550, 1586.086
1094.032, 1582.121
1094.514, 1581.097
1094.996, 1580.465
1095.478, 1580.015
1095.960, 1578.628
1096.443, 1575.230
1096.925, 1571.015
1097.407, 1569.791
1097.889, 1571.160
1098.371, 1572.042
1098.853, 1571.211
1099.335, 1571.186
1099.817, 1575.380
1100.299, 1579.948
1100.781, 1580.796
1101.264, 1577.727
1101.746, 1578.286
1102.228, 1582.763
1102.710, 1586.930
1103.192, 1588.490
1103.674, 1588.939
1104.156, 1589.717
1104.638, 1590.628
1105.121, 1591.342
1105.603, 1591.515
1106.085, 1592.117
1106.567, 1593.221
1107.049, 1594.611
1107.531, 1595.948
1108.013, 1597.546
1108.495, 1600.469
1108.978, 1604.344
1109.460, 1607.685
1109.942, 1609.133
1110.424, 1611.218
1110.906, 1614.949
1111.388, 1618.704
1111.870, 1621.036
1112.352, 1621.591
1112.834, 1617.826
1113.317, 1609.666
1113.799, 1602.550
1114.281, 1601.689
1114.763, 1600.430
1115.245, 1595.453
1115.727, 1587.859
1116.209, 1579.719
1116.691, 1571.061
1117.173, 1564.654
1117.656, 1561.435
1118.138, 1558.676
1118.620, 1553.804
1119.102, 1548.572
1119.584, 1544.806
1120.066, 1542.492
1120.548, 1538.516
1121.030, 1532.352
1121.513, 1528.405
1121.995, 1529.215
1122.477, 1531.082
1122.959, 1529.217
1123.441, 1525.558
1123.923, 1522.737
1124.405, 1521.256
1124.887, 1520.926
1125.370, 1522.111
1125.852, 1523.403
1126.334, 1524.014
1126.816, 1524.164
1127.298, 1524.126
1127.780, 1524.026
1128.262, 1524.153
1128.744, 1525.361
1129.226, 1525.568
1129.709, 1523.891
1130.191, 1522.303
1130.673, 1522.622
1131.155, 1524.436
1131.637, 1526.024
1132.119, 1527.510
1132.601, 1529.880
1133.083, 1534.460
1133.566, 1539.015
1134.048, 1543.130
1134.530, 1546.544
1135.012, 1548.407
1135.494, 1548.943
1135.976, 1551.039
1136.458, 1554.944
1136.940, 1558.354
1137.422, 1558.948
1137.905, 1559.326
1138.387, 1561.711
1138.869, 1564.964
1139.351, 1565.913
1139.833, 1564.468
1140.315, 1563.475
1140.797, 1563.641
1141.279, 1562.938
1141.761, 1559.176
1142.244, 1554.016
1142.726, 1548.426
1143.208, 1542.621
1143.690, 1537.797
1144.172, 1534.260
1144.654, 1529.910
1145.136, 1523.924
1145.618, 1517.664
1146.101, 1512.986
1146.583, 1509.026
1147.065, 1504.603
1147.547, 1499.366
1148.029, 1494.808
1148.511, 1491.186
1148.993, 1487.481
1149.475, 1483.452
1149.958, 1478.827
1150.440, 1472.289
1150.922, 1465.023
1151.404, 1459.266
1151.886, 1456.645
1152.368, 1452.957
1152.850, 1447.741
1153.332, 1441.938
1153.814, 1435.871
1154.297, 1429.805
1154.779, 1424.272
1155.261, 1419.257
1155.743, 1414.941
1156.225, 1411.286
1156.707, 1408.498
1157.189, 1406.911
1157.671, 1405.522
1158.153, 1403.483
1158.636, 1400.910
1159.118, 1397.884
1159.600, 1394.678
1160.082, 1392.515
1160.564, 1393.127
1161.046, 1393.366
1161.528, 1391.922
1162.010, 1390.201
1162.493, 1390.025
1162.975, 1391.117
1163.457, 1391.596
1163.939, 1391.387
1164.421, 1390.894
1164.903, 1390.398
1165.385, 1389.598
1165.867, 1388.175
1166.349, 1386.477
1166.832, 1384.950
1167.314, 1383.604
1167.796, 1383.206
1168.278, 1383.851
1168.760, 1383.726
1169.242, 1379.614
1169.724, 1376.256
1170.206, 1377.509
1170.688, 1381.479
1171.171, 1383.589
1171.653, 1383.885
1172.135, 1384.177
1172.617, 1384.802
1173.099, 1385.439
1173.581, 1385.119
1174.063, 1385.306
1174.545, 1387.740
1175.028, 1391.793
1175.510, 1394.356
1175.992, 1395.377
1176.474, 1396.476
1176.956, 1398.029
1177.438, 1399.976
1177.920, 1402.130
1178.402, 1404.738
1178.885, 1408.162
1179.367, 1412.365
1179.849, 1416.935
1180.331, 1421.999
1180.813, 1426.490
1181.295, 1429.883
1181.777, 1433.039
1182.259, 1437.015
1182.741, 1441.157
1183.224, 1444.823
1183.706, 1447.965
1184.188, 1450.646
1184.670, 1452.991
1185.152, 1454.076
1185.634, 1453.108
1186.116, 1451.338
1186.598, 1450.603
1187.081, 1449.740
1187.563, 1447.053
1188.045, 1442.002
1188.527, 1436.535
1189.009, 1430.641
1189.491, 1424.527
1189.973, 1418.031
1190.455, 1411.714
1190.938, 1405.751
1191.420, 1400.661
1191.902, 1397.543
1192.384, 1398.182
1192.866, 1395.881
1193.348, 1390.094
1193.830, 1384.029
1194.312, 1379.442
1194.794, 1375.995
1195.276, 1373.570
1195.759, 1371.876
1196.241, 1370.418
1196.723, 1369.700
1197.205, 1367.413
1197.687, 1362.970
1198.169, 1359.401
1198.651, 1360.049
1199.133, 1362.241
1199.616, 1362.200
1200.098, 1360.835
1200.580, 1360.603
1201.062, 1362.620
1201.544, 1363.964
1202.026, 1364.446
1202.508, 1364.455
1202.990, 1364.103
1203.473, 1363.631
1203.955, 1363.053
1204.437, 1362.621
1204.919, 1363.244
1205.401, 1366.111
1205.883, 1367.210
1206.365, 1365.910
1206.847, 1364.217
1207.329, 1364.084
1207.812, 1364.685
1208.294, 1364.910
1208.776, 1364.903
1209.258, 1365.571
1209.740, 1367.771
1210.222, 1368.310
1210.704, 1366.303
1211.186, 1364.855
1211.668, 1368.272
1212.151, 1373.307
1212.633, 1375.811
1213.115, 1376.015
1213.597, 1376.370
1214.079, 1377.197
1214.561, 1378.025
1215.043, 1378.829
1215.525, 1379.388
1216.008, 1378.903
1216.490, 1378.409
1216.972, 1379.260
1217.454, 1381.383
1217.936, 1383.523
1218.418, 1385.500
1218.900, 1387.862
1219.382, 1390.911
1219.865, 1393.467
1220.347, 1393.564
1220.829, 1392.922
1221.311, 1393.638
1221.793, 1395.663
1222.275, 1397.075
1222.757, 1397.705
1223.239, 1398.198
1223.721, 1398.703
1224.203, 1399.047
1224.686, 1398.528
1225.168, 1398.138
1225.650, 1398.977
1226.132, 1401.095
1226.614, 1403.627
1227.096, 1406.882
1227.578, 1408.615
1228.061, 1408.085
1228.543, 1407.156
1229.025, 1407.666
1229.507, 1408.826
1229.989, 1410.184
1230.471, 1411.553
1230.953, 1411.868
1231.435, 1410.982
1231.917, 1410.447
1232.400, 1410.820
1232.882, 1410.566
1233.364, 1407.143
1233.846, 1403.268
1234.328, 1401.953
1234.810, 1402.634
1235.292, 1400.569
1235.774, 1395.551
1236.256, 1393.708
1236.739, 1397.201
1237.221, 1400.693
1237.703, 1398.983
1238.185, 1395.998
1238.667, 1395.155
1239.149, 1395.895
1239.631, 1395.359
1240.113, 1393.611
1240.596, 1391.845
1241.078, 1390.195
1241.560, 1389.530
1242.042, 1391.280
1242.524, 1393.514
1243.006, 1394.811
1243.488, 1395.484
1243.970, 1397.132
1244.453, 1399.519
1244.935, 1400.531
1245.417, 1399.430
1245.899, 1398.308
1246.381, 1398.638
1246.863, 1399.094
1247.345, 1398.833
1247.827, 1398.192
1248.309, 1398.374
1248.792, 1399.187
1249.274, 1399.759
1249.756, 1399.869
1250.238, 1399.872
1250.720, 1400.177
1251.202, 1400.075
1251.684, 1399.048
1252.166, 1397.634
1252.648, 1397.471
1253.131, 1398.062
1253.613, 1397.842
1254.095, 1396.334
1254.577, 1394.950
1255.059, 1393.880
1255.541, 1393.391
1256.023, 1393.722
1256.505, 1394.526
1256.988, 1395.423
1257.470, 1396.163
1257.952, 1396.287
1258.434, 1395.768
1258.916, 1394.127
1259.398, 1390.590
1259.880, 1387.707
1260.362, 1386.277
1260.844, 1386.068
1261.327, 1387.333
1261.809, 1389.259
1262.291, 1390.808
1262.773, 1391.838
1263.255, 1391.519
1263.737, 1389.450
1264.219, 1387.378
1264.701, 1385.792
1265.183, 1384.554
1265.666, 1383.304
1266.148, 1382.376
1266.630, 1381.982
1267.112, 1382.201
1267.594, 1384.380
1268.076, 1388.973
1268.558, 1391.769
1269.040, 1391.137
1269.523, 1389.900
1270.005, 1390.731
1270.487, 1392.323
1270.969, 1393.904
1271.451, 1395.228
1271.933, 1394.738
1272.415, 1392.470
1272.897, 1389.515
1273.380, 1385.778
1273.862, 1383.684
1274.344, 1386.625
1274.826, 1390.294
1275.308, 1392.378
1275.790, 1392.836
1276.272, 1390.624
1276.754, 1386.483
1277.236, 1384.540
1277.719, 1385.826
1278.201, 1387.789
1278.683, 1389.543
1279.165, 1391.197
1279.647, 1392.991
1280.129, 1394.524
1280.611, 1394.637
1281.093, 1393.895
1281.576, 1393.806
1282.058, 1394.624
1282.540, 1395.914
1283.022, 1398.715
1283.504, 1399.729
1283.986, 1397.342
1284.468, 1394.392
1284.950, 1395.428
1285.432, 1398.844
1285.915, 1402.793
1286.397, 1406.923
1286.879, 1408.348
1287.361, 1405.930
1287.843, 1404.312
1288.325, 1404.652
1288.807, 1405.578
1289.289, 1405.235
1289.771, 1404.841
1290.254, 1405.719
1290.736, 1407.871
1291.218, 1410.379
1291.700, 1413.303
1292.182, 1416.080
1292.664, 1418.711
1293.146, 1420.188
1293.628, 1418.470
1294.111, 1416.412
1294.593, 1415.896
1295.075, 1416.565
1295.557, 1418.227
1296.039, 1420.685
1296.521, 1421.453
1297.003, 1420.351
1297.485, 1419.721
1297.968, 1420.281
1298.450, 1422.260
1298.932, 1426.511
1299.414, 1431.029
1299.896, 1432.035
1300.378, 1430.884
1300.860, 1432.697
1301.342, 1437.097
1301.824, 1437.776
##END=



