##NAMES=Wickenburgite
##RRUFFID=R060087
##IDEAL CHEMISTRY=Pb^2+^_3_CaAl_2_Si_10_O_27_&#183;4H_2_O
##LOCALITY=Potter Claim, Wickenburg, Arizona, USA
##OWNER=RRUFF
##SOURCE=University of Arizona Mineral Museum
##DESCRIPTION=Colorless flattened tabular hexagonal prisms
##STATUS=The identification of this mineral has been confirmed by single-crystal X-ray diffraction.
##URL=rruff.info/R060087
93.46680, 141.6212
93.94891, 141.7842
94.43103, 142.0062
94.91315, 141.1011
95.39526, 139.3623
95.87738, 137.1381
96.35950, 134.7171
96.84161, 132.3499
97.32373, 130.2405
97.80585, 128.2571
98.28796, 126.3567
98.77008, 124.5639
99.25220, 122.8625
99.73431, 121.1968
100.2164, 119.4997
100.6985, 117.7380
101.1807, 116.2666
101.6628, 115.0272
102.1449, 113.9254
102.6270, 112.8870
103.1091, 111.9036
103.5912, 111.0481
104.0734, 110.1940
104.5555, 109.5756
105.0376, 109.3452
105.5197, 109.3817
106.0018, 109.4640
106.4839, 109.4125
106.9661, 109.2105
107.4482, 108.9157
107.9303, 108.3257
108.4124, 107.7813
108.8945, 107.4823
109.3766, 107.4519
109.8588, 107.5849
110.3409, 107.7868
110.8230, 108.0671
111.3051, 108.3283
111.7872, 108.6576
112.2693, 108.9377
112.7515, 108.9293
113.2336, 108.4648
113.7157, 107.9190
114.1978, 107.8191
114.6799, 108.1635
115.1620, 108.4190
115.6442, 108.1785
116.1263, 107.4642
116.6084, 106.8166
117.0905, 106.4011
117.5726, 106.0801
118.0547, 105.7713
118.5369, 105.4623
119.0190, 105.1545
119.5011, 104.8458
119.9832, 104.5313
120.4653, 104.2288
120.9474, 104.0068
121.4296, 103.7617
121.9117, 103.4112
122.3938, 102.9187
122.8759, 102.2997
123.3580, 101.5980
123.8401, 100.6742
124.3223, 99.81191
124.8044, 99.05860
125.2865, 98.37917
125.7686, 97.71695
126.2507, 97.02449
126.7328, 96.31231
127.2150, 95.72869
127.6971, 95.23975
128.1792, 94.86903
128.6613, 94.71162
129.1434, 94.72440
129.6255, 94.68125
130.1077, 94.34407
130.5898, 93.76381
131.0719, 93.44199
131.5540, 93.64690
132.0361, 93.99062
132.5182, 93.99860
133.0004, 93.56190
133.4825, 93.15353
133.9646, 93.22184
134.4467, 93.61555
134.9288, 94.05614
135.4109, 94.39788
135.8931, 94.68838
136.3752, 95.11526
136.8573, 95.78510
137.3394, 96.46783
137.8215, 97.06654
138.3036, 97.57861
138.7858, 98.00282
139.2679, 98.32435
139.7500, 98.53255
140.2321, 98.72419
140.7142, 98.94810
141.1963, 99.11543
141.6785, 99.15879
142.1606, 99.09005
142.6427, 98.98709
143.1248, 98.94371
143.6069, 98.97108
144.0890, 99.04482
144.5712, 99.22401
145.0533, 99.40247
145.5354, 99.48242
146.0175, 99.44407
146.4996, 99.37312
146.9817, 99.42152
147.4639, 99.63371
147.9460, 99.91222
148.4281, 100.3200
148.9102, 100.7742
149.3923, 101.1644
149.8744, 101.4428
150.3566, 101.6585
150.8387, 101.9374
151.3208, 102.3213
151.8029, 102.6588
152.2850, 102.8397
152.7671, 102.9168
153.2493, 103.0590
153.7314, 103.3457
154.2135, 103.7356
154.6956, 104.1412
155.1777, 104.5771
155.6598, 104.9895
156.1420, 105.3565
156.6241, 105.6803
157.1062, 105.8959
157.5883, 106.0109
158.0704, 105.9705
158.5525, 105.6850
159.0347, 105.1025
159.5168, 104.3520
159.9989, 103.6843
160.4810, 103.2804
160.9631, 102.4842
161.4452, 101.0469
161.9274, 99.22550
162.4095, 97.17142
162.8916, 94.92965
163.3737, 92.60031
163.8558, 90.53812
164.3379, 88.93994
164.8201, 87.37096
165.3022, 85.68381
165.7843, 83.99214
166.2664, 82.45991
166.7485, 81.17967
167.2306, 80.13416
167.7128, 79.13815
168.1949, 78.12325
168.6770, 77.22750
169.1591, 76.48913
169.6412, 75.89327
170.1233, 75.41656
170.6055, 75.05905
171.0876, 74.81355
171.5697, 74.48818
172.0518, 73.94465
172.5339, 73.46449
173.0160, 73.19860
173.4982, 73.12766
173.9803, 73.13309
174.4624, 73.15595
174.9445, 73.18192
175.4266, 73.10457
175.9087, 72.81898
176.3909, 72.50072
176.8730, 72.29237
177.3551, 72.20338
177.8372, 72.16885
178.3193, 72.14882
178.8014, 72.14537
179.2836, 72.16813
179.7657, 72.15943
180.2478, 72.19823
180.7299, 72.45574
181.2120, 73.02480
181.6941, 73.55288
182.1763, 73.69609
182.6584, 73.63091
183.1405, 73.67973
183.6226, 74.09191
184.1047, 74.73337
184.5868, 75.12784
185.0690, 75.04264
185.5511, 75.06001
186.0332, 75.47426
186.5153, 76.16871
186.9974, 76.93103
187.4795, 77.66082
187.9617, 78.35131
188.4438, 78.87807
188.9259, 78.98756
189.4080, 79.19228
189.8901, 79.74672
190.3722, 80.53292
190.8544, 81.27454
191.3365, 81.71864
191.8186, 81.83725
192.3007, 82.10094
192.7828, 82.61523
193.2649, 83.17653
193.7471, 83.71634
194.2292, 84.24057
194.7113, 84.80980
195.1934, 85.50094
195.6755, 86.38094
196.1576, 86.95057
196.6398, 86.96410
197.1219, 86.95956
197.6040, 87.17458
198.0861, 87.62289
198.5682, 88.21970
199.0503, 88.90647
199.5325, 89.71763
200.0146, 90.36234
200.4967, 90.73144
200.9788, 91.03078
201.4609, 91.40775
201.9430, 91.87316
202.4252, 92.32460
202.9073, 92.65678
203.3894, 92.85271
203.8715, 93.06858
204.3536, 93.35464
204.8357, 93.63833
205.3179, 93.83192
205.8000, 93.92142
206.2821, 94.00633
206.7642, 94.22363
207.2463, 94.54367
207.7284, 94.75674
208.2106, 94.79446
208.6927, 94.71326
209.1748, 94.56639
209.6569, 94.33787
210.1390, 94.11824
210.6211, 94.03995
211.1033, 94.04038
211.5854, 93.95258
212.0675, 93.66943
212.5496, 93.26025
213.0317, 92.87968
213.5138, 92.54953
213.9960, 92.21667
214.4781, 91.82839
214.9602, 91.41166
215.4423, 91.02370
215.9244, 90.72320
216.4065, 90.47792
216.8886, 90.14670
217.3708, 89.59708
217.8529, 89.17114
218.3350, 89.06680
218.8171, 89.17531
219.2992, 89.29949
219.7813, 89.34754
220.2635, 89.31307
220.7456, 89.13064
221.2277, 88.59000
221.7098, 88.15876
222.1919, 88.07786
222.6740, 88.20031
223.1562, 88.26859
223.6383, 88.10294
224.1204, 87.72135
224.6025, 87.34103
225.0846, 86.89727
225.5667, 86.53203
226.0489, 86.33303
226.5310, 86.23203
227.0131, 86.10659
227.4952, 85.86610
227.9773, 85.52149
228.4594, 85.22518
228.9416, 85.07643
229.4237, 84.87614
229.9058, 84.53090
230.3879, 84.10177
230.8700, 83.72466
231.3521, 83.50405
231.8343, 83.41760
232.3164, 83.11156
232.7985, 82.44919
233.2806, 81.73522
233.7627, 80.95335
234.2448, 80.17740
234.7270, 79.55075
235.2091, 79.18318
235.6912, 79.03642
236.1733, 78.74220
236.6554, 78.17936
237.1375, 77.62920
237.6197, 77.16537
238.1018, 76.78122
238.5839, 76.45132
239.0660, 76.16691
239.5481, 75.92222
240.0302, 75.68325
240.5124, 75.39283
240.9945, 75.16686
241.4766, 75.12168
241.9587, 75.18165
242.4408, 75.13463
242.9229, 74.83312
243.4051, 74.38429
243.8872, 74.15543
244.3693, 74.30260
244.8514, 74.41105
245.3335, 74.22529
245.8156, 73.84424
246.2978, 73.58447
246.7799, 73.61968
247.2620, 73.82082
247.7441, 73.89779
248.2262, 73.82270
248.7083, 73.70601
249.1905, 73.56503
249.6726, 73.41859
250.1547, 73.34553
250.6368, 73.41247
251.1189, 73.52303
251.6010, 73.51130
252.0832, 73.34899
252.5653, 73.20901
253.0474, 73.18164
253.5295, 73.25632
254.0116, 73.39955
254.4937, 73.65819
254.9759, 73.91244
255.4580, 73.98625
255.9401, 73.87063
256.4222, 73.82541
256.9043, 74.08103
257.3864, 74.57190
257.8686, 74.94075
258.3507, 75.02190
258.8328, 75.09083
259.3149, 75.31021
259.7970, 75.68855
260.2791, 76.30415
260.7613, 77.50291
261.2434, 79.10008
261.7255, 79.99494
262.2076, 79.65714
262.6897, 79.09908
263.1718, 78.89107
263.6540, 79.01985
264.1361, 79.42349
264.6182, 80.27010
265.1003, 81.44019
265.5824, 82.19127
266.0645, 82.21461
266.5467, 82.21532
267.0288, 82.53336
267.5109, 83.10088
267.9930, 83.76855
268.4751, 84.49449
268.9572, 85.24899
269.4394, 85.89836
269.9215, 86.40437
270.4036, 86.85372
270.8857, 87.32841
271.3678, 87.77235
271.8499, 88.08802
272.3321, 88.19875
272.8142, 88.16441
273.2963, 88.19537
273.7784, 88.35453
274.2605, 88.47205
274.7426, 88.52489
275.2248, 88.50819
275.7069, 88.40515
276.1890, 88.20049
276.6711, 87.92979
277.1532, 87.67106
277.6353, 87.35914
278.1175, 87.19242
278.5996, 87.31937
279.0817, 87.52758
279.5638, 87.61397
280.0459, 87.50359
280.5280, 87.27220
281.0102, 87.05006
281.4923, 86.80624
281.9744, 86.64792
282.4565, 86.56812
282.9386, 86.57297
283.4207, 86.70762
283.9029, 86.97053
284.3850, 87.26295
284.8671, 87.43769
285.3492, 87.46937
285.8313, 87.43656
286.3134, 87.29557
286.7956, 87.13551
287.2777, 87.04665
287.7598, 87.01926
288.2419, 86.93906
288.7240, 86.64748
289.2061, 86.06536
289.6883, 85.56580
290.1704, 85.31494
290.6525, 84.99699
291.1346, 84.44775
291.6167, 83.68088
292.0988, 82.81304
292.5810, 81.93846
293.0631, 81.05317
293.5452, 80.22191
294.0273, 79.43246
294.5094, 78.70501
294.9915, 78.04617
295.4737, 77.45583
295.9558, 76.93263
296.4379, 76.47743
296.9200, 76.08778
297.4021, 75.75280
297.8842, 75.53788
298.3664, 75.31010
298.8485, 75.00297
299.3306, 74.67381
299.8127, 74.41886
300.2948, 74.29594
300.7769, 74.27364
301.2591, 74.22773
301.7412, 74.24856
302.2233, 74.12345
302.7054, 73.70428
303.1875, 73.18349
303.6696, 72.77567
304.1518, 72.56844
304.6339, 72.48098
305.1160, 72.33020
305.5981, 71.98148
306.0802, 71.78134
306.5623, 71.87672
307.0445, 72.02628
307.5266, 72.04639
308.0087, 71.88756
308.4908, 71.60072
308.9729, 71.23750
309.4550, 70.69762
309.9372, 70.34925
310.4193, 70.27358
310.9014, 70.28714
311.3835, 70.30215
311.8656, 70.29918
312.3477, 70.28927
312.8299, 70.29066
313.3120, 70.31831
313.7941, 70.25111
314.2762, 70.02611
314.7583, 69.78238
315.2404, 69.54433
315.7226, 69.33109
316.2047, 69.16830
316.6868, 69.07569
317.1689, 69.05165
317.6510, 69.07586
318.1331, 69.24895
318.6153, 69.35809
319.0974, 69.35727
319.5795, 69.26240
320.0616, 69.07801
320.5437, 68.80090
321.0258, 68.48135
321.5080, 68.28629
321.9901, 68.35252
322.4722, 68.38300
322.9543, 68.41702
323.4364, 68.38316
323.9185, 68.17930
324.4007, 67.78136
324.8828, 67.29356
325.3649, 66.89603
325.8470, 66.60295
326.3291, 66.38667
326.8112, 66.28496
327.2934, 66.21980
327.7755, 66.15871
328.2576, 66.08566
328.7397, 65.97089
329.2218, 65.75919
329.7039, 65.39094
330.1861, 65.22611
330.6682, 65.47322
331.1503, 65.69711
331.6324, 65.63992
332.1145, 65.39090
332.5966, 65.22666
333.0788, 65.37341
333.5609, 65.80642
334.0430, 66.10212
334.5251, 66.25986
335.0072, 66.26924
335.4893, 65.98835
335.9715, 65.58846
336.4536, 65.30531
336.9357, 65.26098
337.4178, 65.39402
337.8999, 65.53085
338.3820, 65.75809
338.8642, 65.84837
339.3463, 65.71312
339.8284, 65.48637
340.3105, 65.23624
340.7926, 64.99904
341.2747, 64.85498
341.7568, 64.97432
342.2390, 65.57848
342.7211, 65.88445
343.2032, 65.70701
343.6853, 65.42675
344.1674, 65.22027
344.6495, 65.11054
345.1317, 65.04662
345.6138, 64.97794
346.0959, 64.90080
346.5780, 64.88329
347.0601, 65.01694
347.5422, 65.12360
348.0244, 65.12306
348.5065, 65.06423
348.9886, 65.04757
349.4707, 65.14407
349.9528, 65.31087
350.4349, 65.36951
350.9171, 65.25601
351.3992, 65.12642
351.8813, 64.98045
352.3634, 64.84960
352.8455, 64.78091
353.3276, 64.78918
353.8098, 64.81729
354.2919, 64.74863
354.7740, 64.51631
355.2561, 64.39395
355.7382, 64.51952
356.2203, 64.67724
356.7025, 64.75906
357.1846, 64.74922
357.6667, 64.67702
358.1488, 64.53339
358.6309, 64.31248
359.1130, 64.19740
359.5952, 64.21321
360.0773, 64.32229
360.5594, 64.59592
361.0415, 64.94245
361.5236, 65.17786
362.0057, 65.16996
362.4879, 64.99396
362.9700, 64.86128
363.4521, 64.74051
363.9342, 64.74135
364.4163, 65.05931
364.8984, 65.43790
365.3806, 65.58302
365.8627, 65.38567
366.3448, 65.07515
366.8269, 64.93668
367.3090, 64.98324
367.7911, 65.08321
368.2733, 65.32464
368.7554, 65.50956
369.2375, 65.40492
369.7196, 65.03330
370.2017, 64.77038
370.6838, 65.00607
371.1660, 65.61571
371.6481, 65.98686
372.1302, 65.98959
372.6123, 65.89842
373.0944, 65.85940
373.5765, 65.87057
374.0587, 65.93618
374.5408, 66.08691
375.0229, 66.27355
375.5050, 66.41958
375.9871, 66.51902
376.4692, 66.62190
376.9514, 66.73067
377.4335, 66.86922
377.9156, 67.08107
378.3977, 67.39821
378.8798, 67.71432
379.3619, 67.96764
379.8441, 68.15916
380.3262, 68.28580
380.8083, 68.32934
381.2904, 68.33625
381.7725, 68.35414
382.2546, 68.38139
382.7368, 68.43649
383.2189, 68.47602
383.7010, 68.56770
384.1831, 68.86373
384.6652, 69.39350
385.1473, 69.88338
385.6295, 70.09974
386.1116, 70.07366
386.5937, 70.10281
387.0758, 70.14620
387.5579, 70.29137
388.0400, 70.65520
388.5222, 71.17837
389.0043, 71.67636
389.4864, 72.07220
389.9685, 72.37296
390.4506, 72.58042
390.9327, 72.67848
391.4149, 72.74634
391.8970, 72.79420
392.3791, 72.82284
392.8612, 72.84242
393.3433, 72.85349
393.8254, 72.82353
394.3076, 72.70243
394.7897, 72.45922
395.2718, 72.29937
395.7539, 72.37890
396.2360, 72.39229
396.7181, 72.14803
397.2003, 71.68869
397.6824, 71.18108
398.1645, 70.73486
398.6466, 70.31462
399.1287, 69.71753
399.6108, 68.65919
400.0930, 67.77388
400.5751, 67.21127
401.0572, 66.81200
401.5393, 66.41673
402.0214, 65.97319
402.5035, 65.50069
402.9857, 65.02005
403.4678, 64.50572
403.9499, 64.06264
404.4320, 63.71184
404.9141, 63.39978
405.3962, 63.11294
405.8784, 62.84288
406.3605, 62.57956
406.8426, 62.31969
407.3247, 62.05951
407.8068, 61.77657
408.2889, 61.40271
408.7711, 61.11232
409.2532, 60.96289
409.7353, 60.89827
410.2174, 60.89006
410.6995, 60.92879
411.1816, 60.93018
411.6638, 60.71105
412.1459, 60.19430
412.6280, 59.88352
413.1101, 60.06031
413.5922, 60.28502
414.0743, 60.33368
414.5565, 60.21251
415.0386, 60.02320
415.5207, 59.76650
416.0028, 59.49373
416.4849, 59.42834
416.9670, 59.66960
417.4492, 59.87038
417.9313, 59.83371
418.4134, 59.65463
418.8955, 59.42371
419.3776, 59.13007
419.8597, 58.86578
420.3419, 58.73832
420.8240, 58.73404
421.3061, 58.72305
421.7882, 58.66224
422.2703, 58.59127
422.7524, 58.57127
423.2346, 58.60074
423.7167, 58.59571
424.1988, 58.48701
424.6809, 58.34418
425.1630, 58.26934
425.6451, 58.27276
426.1273, 58.28093
426.6094, 58.23265
427.0915, 58.14414
427.5736, 58.10582
428.0557, 58.23464
428.5378, 58.28767
429.0200, 58.05027
429.5021, 57.67013
429.9842, 57.47171
430.4663, 57.58122
430.9484, 57.83851
431.4305, 57.98342
431.9127, 57.96011
432.3948, 57.94949
432.8769, 57.98243
433.3590, 58.00570
433.8411, 57.97089
434.3232, 57.88552
434.8054, 57.79597
435.2875, 57.73845
435.7696, 57.70943
436.2517, 57.67198
436.7338, 57.64339
437.2159, 57.58406
437.6981, 57.43950
438.1802, 57.28255
438.6623, 57.19571
439.1444, 57.20535
439.6265, 57.27246
440.1086, 57.35212
440.5908, 57.46795
441.0729, 57.51785
441.5550, 57.47915
442.0371, 57.39481
442.5192, 57.24556
443.0013, 57.06347
443.4835, 56.92115
443.9656, 56.87773
444.4477, 56.89628
444.9298, 56.84905
445.4119, 56.69037
445.8940, 56.58355
446.3762, 56.56812
446.8583, 56.63512
447.3404, 56.82018
447.8225, 57.13294
448.3046, 57.42730
448.7867, 57.56081
449.2689, 57.55895
449.7510, 57.54974
450.2331, 57.52325
450.7152, 57.54442
451.1973, 57.72619
451.6794, 58.00109
452.1616, 58.18900
452.6437, 58.14884
453.1258, 58.07549
453.6079, 58.18269
454.0900, 58.44131
454.5721, 58.65837
455.0543, 58.74378
455.5364, 58.75283
456.0185, 58.79686
456.5006, 58.88585
456.9827, 58.96173
457.4648, 58.98424
457.9470, 59.00246
458.4291, 59.08281
458.9112, 59.22681
459.3933, 59.36098
459.8754, 59.40918
460.3575, 59.37778
460.8397, 59.49297
461.3218, 59.98863
461.8039, 60.33400
462.2860, 60.26097
462.7681, 60.00171
463.2502, 59.87878
463.7324, 60.00291
464.2145, 60.23829
464.6966, 60.37117
465.1787, 60.36266
465.6608, 60.36543
466.1429, 60.38393
466.6251, 60.40818
467.1072, 60.40659
467.5893, 60.40717
468.0714, 60.48672
468.5535, 60.71661
469.0356, 61.01396
469.5178, 61.11834
469.9999, 60.94386
470.4820, 60.80416
470.9641, 60.84985
471.4462, 60.91455
471.9283, 60.86391
472.4105, 60.68540
472.8926, 60.48319
473.3747, 60.31250
473.8568, 60.17948
474.3389, 60.12065
474.8210, 60.15818
475.3032, 60.21241
475.7853, 60.27015
476.2674, 60.30112
476.7495, 60.23679
477.2316, 60.04678
477.7137, 59.79055
478.1959, 59.45121
478.6780, 59.07544
479.1601, 58.79934
479.6422, 58.67450
480.1243, 58.62616
480.6064, 58.56492
481.0886, 58.48730
481.5707, 58.41772
482.0528, 58.36275
482.5349, 58.31150
483.0170, 58.29480
483.4991, 58.27984
483.9813, 58.14927
484.4634, 57.81957
484.9455, 57.39918
485.4276, 57.21303
485.9097, 57.47948
486.3918, 57.67302
486.8740, 57.80165
487.3561, 57.84818
487.8382, 57.76332
488.3203, 57.57088
488.8024, 57.36541
489.2845, 57.21108
489.7667, 57.11367
490.2488, 57.14132
490.7309, 57.42278
491.2130, 57.61802
491.6951, 57.57942
492.1772, 57.45066
492.6594, 57.38746
493.1415, 57.42935
493.6236, 57.47855
494.1057, 57.38974
494.5878, 57.19271
495.0699, 57.16353
495.5521, 57.39373
496.0342, 57.67242
496.5163, 57.87255
496.9984, 58.00365
497.4805, 58.06794
497.9626, 58.01463
498.4448, 57.95295
498.9269, 57.97499
499.4090, 58.06441
499.8911, 58.17353
500.3732, 58.29587
500.8553, 58.40164
501.3375, 58.45198
501.8196, 58.44665
502.3017, 58.37755
502.7838, 58.18428
503.2659, 57.97809
503.7480, 57.79107
504.2302, 57.65222
504.7123, 57.64571
505.1944, 57.83500
505.6765, 58.12151
506.1586, 58.20959
506.6407, 57.93391
507.1228, 57.72074
507.6049, 57.63610
508.0871, 57.56834
508.5692, 57.44638
509.0513, 57.26632
509.5334, 57.05861
510.0155, 56.84535
510.4977, 56.62379
510.9798, 56.38947
511.4619, 56.14659
511.9440, 55.87949
512.4261, 55.58770
512.9083, 55.26714
513.3904, 54.89247
513.8725, 54.45894
514.3546, 54.05233
514.8367, 53.74847
515.3188, 53.51861
515.8010, 53.26006
516.2831, 52.94517
516.7652, 52.69666
517.2473, 52.63941
517.7294, 52.71188
518.2115, 52.70559
518.6937, 52.62072
519.1758, 52.44672
519.6579, 52.10007
520.1400, 51.68437
520.6221, 51.36944
521.1042, 51.19428
521.5864, 51.09487
522.0685, 51.00715
522.5506, 50.93154
523.0327, 50.86200
523.5148, 50.79506
523.9969, 50.73603
524.4791, 50.68467
524.9612, 50.64314
525.4433, 50.63904
525.9254, 50.67640
526.4075, 50.67940
526.8896, 50.48209
527.3718, 50.00166
527.8539, 49.76096
528.3360, 49.96951
528.8181, 50.20524
529.3002, 50.28811
529.7823, 50.27296
530.2645, 50.27757
530.7466, 50.36004
531.2287, 50.45044
531.7108, 50.44162
532.1929, 50.34178
532.6750, 50.26926
533.1572, 50.23273
533.6393, 50.26392
534.1214, 50.46238
534.6035, 50.79240
535.0856, 51.01087
535.5677, 51.00780
536.0499, 50.92950
536.5320, 50.85485
537.0141, 50.79478
537.4962, 50.75589
537.9783, 50.73572
538.4604, 50.77623
538.9426, 50.97005
539.4247, 51.46149
539.9068, 51.72723
540.3889, 51.55144
540.8710, 51.37173
541.3531, 51.46022
541.8353, 51.72956
542.3174, 51.94081
542.7995, 51.96137
543.2816, 51.86817
543.7637, 51.81915
544.2458, 51.80140
544.7280, 51.87104
545.2101, 52.11950
545.6922, 52.38609
546.1743, 52.63892
546.6564, 52.84399
547.1385, 52.89405
547.6207, 52.61180
548.1028, 52.25768
548.5849, 52.29060
549.0670, 52.69357
549.5491, 52.99166
550.0313, 52.99785
550.5134, 52.85434
550.9955, 52.75695
551.4776, 52.70708
551.9597, 52.65125
552.4418, 52.57879
552.9240, 52.49824
553.4061, 52.41515
553.8882, 52.32965
554.3703, 52.24021
554.8524, 52.14524
555.3345, 52.04668
555.8167, 51.94727
556.2988, 51.83316
556.7809, 51.74593
557.2630, 51.69939
557.7451, 51.66185
558.2272, 51.64927
558.7094, 51.62982
559.1915, 51.52398
559.6736, 51.26874
560.1557, 50.95314
560.6378, 50.75935
561.1199, 50.69762
561.6021, 50.70539
562.0842, 50.85466
562.5663, 50.97910
563.0484, 50.94206
563.5305, 50.76189
564.0126, 50.54130
564.4948, 50.23015
564.9769, 49.96124
565.4590, 49.89349
565.9411, 49.99782
566.4232, 50.14258
566.9053, 50.28292
567.3875, 50.42588
567.8696, 50.58829
568.3517, 50.78747
568.8338, 50.94103
569.3159, 51.05395
569.7980, 51.11616
570.2802, 51.05703
570.7623, 50.95311
571.2444, 50.97422
571.7265, 51.19926
572.2086, 51.48991
572.6907, 51.57285
573.1729, 51.37595
573.6550, 51.26388
574.1371, 51.30924
574.6192, 51.38519
575.1013, 51.44216
575.5834, 51.48577
576.0656, 51.53693
576.5477, 51.61625
577.0298, 51.67572
577.5119, 51.60217
577.9940, 51.44141
578.4761, 51.46771
578.9583, 51.78870
579.4404, 52.15583
579.9225, 52.33182
580.4046, 52.32014
580.8867, 52.29792
581.3688, 52.21962
581.8510, 52.18629
582.3331, 52.29832
582.8152, 52.46308
583.2973, 52.53309
583.7794, 52.47116
584.2615, 52.36689
584.7437, 52.33606
585.2258, 52.38924
585.7079, 52.32381
586.1900, 52.01626
586.6721, 51.74105
587.1542, 51.52082
587.6363, 51.38767
588.1184, 51.43840
588.6005, 51.68370
589.0826, 51.86253
589.5648, 51.69235
590.0469, 51.25859
590.5290, 50.85130
591.0111, 50.46669
591.4932, 50.19871
591.9753, 50.15001
592.4575, 50.23552
592.9396, 50.23093
593.4217, 50.08084
593.9038, 49.98725
594.3859, 50.09708
594.8680, 50.24189
595.3502, 50.23195
595.8323, 50.06994
596.3144, 49.86230
596.7965, 49.67019
597.2786, 49.51965
597.7607, 49.51551
598.2429, 49.76902
598.7250, 49.96951
599.2071, 50.15641
599.6892, 50.24107
600.1713, 50.08754
600.6534, 49.77337
601.1356, 49.53341
601.6177, 49.50902
602.0998, 49.62651
602.5819, 49.80611
603.0640, 50.04786
603.5461, 50.15334
604.0283, 49.97691
604.5104, 49.79473
604.9925, 50.00074
605.4746, 50.53908
605.9567, 50.90069
606.4388, 50.94042
606.9210, 50.86336
607.4031, 50.70003
607.8852, 50.52598
608.3673, 50.50879
608.8494, 50.69197
609.3315, 50.90571
609.8137, 50.92216
610.2958, 50.71587
610.7779, 50.57782
611.2600, 50.53181
611.7421, 50.53018
612.2242, 50.60166
612.7064, 50.69023
613.1885, 50.73850
613.6706, 50.73310
614.1527, 50.68751
614.6348, 50.59681
615.1169, 50.47564
615.5991, 50.36821
616.0812, 50.27742
616.5633, 50.19514
617.0454, 50.13702
617.5275, 50.06983
618.0096, 49.90901
618.4918, 49.62150
618.9739, 49.36121
619.4560, 49.12878
619.9381, 48.95819
620.4202, 48.94403
620.9023, 49.02335
621.3845, 48.99495
621.8666, 48.74337
622.3487, 48.38428
622.8308, 48.18523
623.3129, 48.20850
623.7950, 48.19459
624.2772, 48.07400
624.7593, 47.97203
625.2414, 47.97491
625.7235, 48.03228
626.2056, 48.04650
626.6877, 47.98714
627.1699, 47.86599
627.6520, 47.60769
628.1341, 47.29265
628.6162, 47.24152
629.0983, 47.53812
629.5804, 47.80576
630.0626, 47.68872
630.5447, 47.26670
631.0268, 47.16981
631.5089, 47.69872
631.9910, 48.09739
632.4731, 48.17987
632.9553, 48.12918
633.4374, 48.08212
633.9195, 48.06829
634.4016, 48.07944
634.8837, 48.10832
635.3658, 48.15995
635.8480, 48.26939
636.3301, 48.46978
636.8122, 48.57921
637.2943, 48.45859
637.7764, 48.34011
638.2585, 48.42672
638.7407, 48.67988
639.2228, 48.92212
639.7049, 49.11413
640.1870, 49.26255
640.6691, 49.32625
641.1512, 49.35513
641.6334, 49.48940
642.1155, 49.76388
642.5976, 50.03936
643.0797, 50.16029
643.5618, 50.12684
644.0439, 50.13863
644.5261, 50.22902
645.0082, 50.32525
645.4903, 50.35099
645.9724, 50.42188
646.4545, 50.69542
646.9366, 51.15121
647.4188, 51.56912
647.9009, 51.74461
648.3830, 51.79070
648.8651, 51.97334
649.3472, 52.29561
649.8293, 52.57751
650.3115, 52.71807
650.7936, 52.86090
651.2757, 53.23641
651.7578, 53.85933
652.2399, 54.34272
652.7220, 54.54088
653.2042, 54.71851
653.6863, 54.99492
654.1684, 55.34003
654.6505, 55.71211
655.1326, 56.09300
655.6147, 56.46313
656.0969, 56.79744
656.5790, 57.09734
657.0611, 57.38405
657.5432, 57.63857
658.0253, 57.91949
658.5074, 58.26371
658.9896, 58.63247
659.4717, 59.01328
659.9538, 59.40220
660.4359, 59.73915
660.9180, 60.01338
661.4001, 60.21122
661.8823, 60.24022
662.3644, 60.17025
662.8465, 60.26832
663.3286, 60.64383
663.8107, 61.11709
664.2928, 61.44967
664.7750, 61.63603
665.2571, 61.72420
665.7392, 61.60870
666.2213, 61.51823
666.7034, 61.51781
667.1855, 61.56280
667.6677, 61.63189
668.1498, 61.70963
668.6319, 61.71675
669.1140, 61.55890
669.5961, 61.29408
670.0782, 61.07919
670.5604, 60.91633
671.0425, 60.62117
671.5246, 60.07250
672.0067, 59.44898
672.4888, 59.03490
672.9709, 58.88543
673.4531, 58.65966
673.9352, 58.30123
674.4173, 57.92107
674.8994, 57.58909
675.3815, 57.25971
675.8636, 56.80577
676.3458, 56.22094
676.8279, 55.72395
677.3100, 55.59977
677.7921, 55.77846
678.2742, 55.77177
678.7563, 55.50975
679.2385, 55.32570
679.7206, 55.37102
680.2027, 55.53209
680.6848, 55.66228
681.1669, 55.76158
681.6490, 55.88702
682.1312, 56.04715
682.6133, 56.24236
683.0954, 56.51384
683.5775, 56.81155
684.0596, 57.01422
684.5417, 57.09303
685.0239, 57.18431
685.5060, 57.47149
685.9881, 57.94250
686.4702, 58.22283
686.9523, 58.18792
687.4344, 58.20032
687.9166, 58.34679
688.3987, 58.59568
688.8808, 59.00457
689.3629, 59.54490
689.8450, 59.93203
690.3271, 59.92688
690.8093, 59.81071
691.2914, 59.85044
691.7735, 60.00204
692.2556, 60.14660
692.7377, 60.24816
693.2198, 60.29920
693.7020, 60.28467
694.1841, 60.20532
694.6662, 60.15443
695.1483, 60.26136
695.6304, 60.20145
696.1125, 59.88804
696.5947, 59.42616
697.0768, 58.82677
697.5589, 58.13906
698.0410, 57.54377
698.5231, 57.21799
699.0052, 56.94521
699.4874, 56.46483
699.9695, 55.80096
700.4516, 55.02735
700.9337, 54.16003
701.4158, 53.26457
701.8979, 52.40136
702.3801, 51.57149
702.8622, 50.79402
703.3443, 50.02446
703.8264, 49.37532
704.3085, 48.95866
704.7906, 48.58934
705.2728, 48.09861
705.7549, 47.51801
706.2370, 46.99199
706.7191, 46.60225
707.2012, 46.31153
707.6833, 46.08793
708.1655, 45.92471
708.6476, 45.79652
709.1297, 45.70886
709.6118, 45.59026
710.0939, 45.36884
710.5760, 45.06997
711.0582, 44.83353
711.5403, 44.64643
712.0224, 44.53466
712.5045, 44.58445
712.9866, 44.63758
713.4688, 44.54758
713.9509, 44.36868
714.4330, 44.27372
714.9151, 44.35986
715.3972, 44.46797
715.8793, 44.34920
716.3615, 44.04777
716.8436, 43.83041
717.3257, 43.73046
717.8078, 43.69632
718.2899, 43.71590
718.7720, 43.76847
719.2542, 43.81145
719.7363, 43.90405
720.2184, 43.84430
720.7005, 43.37948
721.1826, 42.98709
721.6647, 43.05197
722.1469, 43.36826
722.6290, 43.52166
723.1111, 43.36437
723.5932, 43.11525
724.0753, 43.00795
724.5574, 43.02356
725.0396, 43.08950
725.5217, 43.21975
726.0038, 43.27583
726.4859, 43.15176
726.9680, 42.97661
727.4501, 42.98964
727.9323, 43.24149
728.4144, 43.35329
728.8965, 43.17775
729.3786, 43.00121
729.8607, 42.99318
730.3428, 43.04035
730.8250, 42.94125
731.3071, 42.68290
731.7892, 42.49512
732.2713, 42.63378
732.7534, 42.96437
733.2355, 43.08484
733.7177, 42.98645
734.1998, 42.84978
734.6819, 42.69478
735.1640, 42.51259
735.6461, 42.65175
736.1282, 42.72259
736.6104, 42.72889
737.0925, 42.47107
737.5746, 42.55912
738.0567, 42.51151
738.5388, 42.46034
739.0209, 42.60308
739.5031, 42.39449
739.9852, 42.53839
740.4673, 42.54452
740.9494, 42.61677
741.4315, 42.55250
741.9136, 42.53314
742.3958, 42.65455
742.8779, 42.70129
743.3600, 42.62946
743.8421, 42.71838
744.3242, 42.52595
744.8063, 42.58435
745.2885, 42.75219
745.7706, 42.69783
746.2527, 42.79979
746.7348, 42.84512
747.2169, 42.62564
747.6990, 42.87244
748.1812, 42.92062
748.6633, 42.76476
749.1454, 43.00196
749.6275, 42.87872
750.1096, 43.05772
750.5917, 43.27288
751.0739, 43.48742
751.5560, 43.54451
752.0381, 43.32838
752.5202, 43.03341
753.0023, 42.94792
753.4844, 43.11183
753.9666, 43.24109
754.4487, 43.34718
754.9308, 43.40834
755.4129, 43.40051
755.8950, 43.35645
756.3771, 43.28516
756.8593, 43.20420
757.3414, 43.17274
757.8235, 43.24940
758.3056, 43.36944
758.7877, 43.44274
759.2698, 43.47484
759.7520, 43.49481
760.2341, 43.51045
760.7162, 43.49263
761.1983, 43.41502
761.6804, 43.28599
762.1625, 43.14189
762.6447, 42.93157
763.1268, 42.79259
763.6089, 42.72613
764.0910, 42.72917
764.5731, 42.87102
765.0552, 43.06353
765.5374, 43.13280
766.0195, 43.01118
766.5016, 42.86902
766.9837, 42.82765
767.4658, 42.85313
767.9479, 42.92830
768.4301, 43.02893
768.9122, 43.02697
769.3943, 42.86039
769.8764, 42.62820
770.3585, 42.46959
770.8406, 42.37982
771.3228, 42.42115
771.8049, 42.75000
772.2870, 42.96152
772.7691, 42.85711
773.2512, 42.66221
773.7333, 42.55946
774.2155, 42.55445
774.6976, 42.57494
775.1797, 42.65839
775.6618, 42.69233
776.1439, 42.51345
776.6260, 42.26692
777.1082, 42.20119
777.5903, 42.34045
778.0724, 42.54568
778.5545, 42.73009
779.0366, 42.86494
779.5187, 42.84190
780.0009, 42.61919
780.4830, 42.51121
780.9651, 42.62564
781.4472, 42.71495
781.9293, 42.55064
782.4114, 42.29116
782.8936, 42.26459
783.3757, 42.56154
783.8578, 42.78509
784.3399, 42.79486
784.8220, 42.74431
785.3041, 42.69345
785.7863, 42.67008
786.2684, 42.72075
786.7505, 42.85171
787.2326, 42.99678
787.7147, 43.10423
788.1968, 43.17039
788.6790, 43.17196
789.1611, 43.10806
789.6432, 43.03727
790.1253, 42.96664
790.6074, 42.91992
791.0895, 42.91975
791.5717, 42.96488
792.0538, 43.04112
792.5359, 43.13503
793.0180, 43.27813
793.5001, 43.61644
793.9822, 43.87505
794.4644, 43.79915
794.9465, 43.50713
795.4286, 43.28587
795.9107, 43.24192
796.3928, 43.28174
796.8749, 43.39222
797.3571, 43.50207
797.8392, 43.42513
798.3213, 43.18608
798.8034, 42.78106
799.2855, 43.07385
799.7676, 43.22579
800.2498, 43.24445
800.7319, 42.73067
801.2140, 42.90443
801.6961, 42.80265
802.1782, 42.68958
802.6603, 42.96012
803.1425, 42.52377
803.6246, 42.78822
804.1067, 42.77293
804.5888, 42.88567
805.0709, 42.72116
805.5530, 42.64230
806.0352, 42.84075
806.5173, 42.88565
806.9994, 42.68923
807.4815, 42.81011
807.9636, 42.36408
808.4457, 42.41553
808.9279, 42.68159
809.4100, 42.49912
809.8921, 42.62506
810.3742, 42.63354
810.8563, 42.10820
811.3384, 42.51123
811.8206, 42.51277
812.3027, 42.43877
812.7848, 42.49572
813.2669, 42.41340
813.7490, 42.31112
814.2311, 42.12148
814.7133, 41.99829
815.1954, 42.06260
815.6775, 42.15456
816.1596, 42.08970
816.6417, 41.90123
817.1238, 41.79230
817.6060, 41.90188
818.0881, 42.03991
818.5702, 41.96264
819.0523, 41.77885
819.5344, 41.76052
820.0165, 41.91443
820.4987, 42.00510
820.9808, 41.89344
821.4629, 41.70803
821.9450, 41.69405
822.4271, 41.88103
822.9092, 42.02774
823.3914, 42.13861
823.8735, 42.20042
824.3556, 42.19380
824.8377, 42.14482
825.3198, 42.04554
825.8019, 41.90687
826.2841, 41.87011
826.7662, 42.14851
827.2483, 42.30868
827.7304, 42.03401
828.2125, 41.63906
828.6946, 41.45853
829.1768, 41.49336
829.6589, 41.58160
830.1410, 41.64275
830.6231, 41.68304
831.1052, 41.70668
831.5873, 41.71632
832.0695, 41.71040
832.5516, 41.68842
833.0337, 41.72396
833.5158, 41.87260
833.9979, 42.02139
834.4800, 41.99077
834.9622, 41.75826
835.4443, 41.58572
835.9264, 41.47710
836.4085, 41.42534
836.8906, 41.39346
837.3727, 41.44289
837.8549, 41.70501
838.3370, 42.09937
838.8191, 42.33284
839.3012, 42.27790
839.7833, 42.14190
840.2654, 41.95987
840.7476, 41.81190
841.2297, 41.81424
841.7118, 41.93225
842.1939, 42.06523
842.6760, 42.16785
843.1581, 42.20178
843.6403, 42.07011
844.1224, 41.82165
844.6045, 41.72631
845.0866, 41.79355
845.5687, 41.86371
846.0508, 41.88389
846.5330, 41.90613
847.0151, 41.99379
847.4972, 42.13645
847.9793, 42.21708
848.4614, 42.18740
848.9435, 42.16773
849.4257, 42.15074
849.9078, 42.15772
850.3899, 42.27075
850.8720, 42.39481
851.3541, 42.32607
851.8362, 41.99258
852.3184, 41.70752
852.8005, 41.66214
853.2826, 41.72384
853.7647, 41.80523
854.2468, 41.88237
854.7289, 41.91885
855.2111, 41.90706
855.6932, 41.86622
856.1753, 41.80618
856.6574, 41.74043
857.1395, 41.70195
857.6216, 41.69068
858.1038, 41.70515
858.5859, 41.74117
859.0680, 41.83269
859.5501, 42.04566
860.0322, 42.28264
860.5143, 42.30683
860.9965, 42.04909
861.4786, 41.78988
861.9607, 41.42962
862.4428, 41.18869
862.9249, 41.16986
863.4070, 41.27415
863.8892, 41.46661
864.3713, 41.70753
864.8534, 41.80991
865.3355, 41.61943
865.8176, 41.38593
866.2997, 41.25807
866.7819, 41.19061
867.2640, 41.15208
867.7461, 41.12008
868.2282, 41.04008
868.7103, 40.88483
869.1924, 40.72076
869.6746, 40.63096
870.1567, 40.61015
870.6388, 40.63818
871.1209, 40.71535
871.6030, 40.81771
872.0851, 40.95390
872.5673, 41.04958
873.0494, 41.01569
873.5315, 40.86723
874.0136, 40.74469
874.4957, 40.60558
874.9778, 40.57060
875.4600, 40.82001
875.9421, 41.00026
876.4242, 40.85074
876.9063, 40.55098
877.3884, 40.41448
877.8705, 40.50031
878.3527, 40.63125
878.8348, 40.81200
879.3169, 40.94999
879.7990, 40.95231
880.2811, 40.88645
880.7632, 40.86684
881.2454, 40.89521
881.7275, 40.85888
882.2096, 40.65650
882.6917, 40.42765
883.1738, 40.39946
883.6559, 40.51398
884.1381, 40.57788
884.6202, 40.57400
885.1023, 40.56547
885.5844, 40.58069
886.0665, 40.62733
886.5486, 40.73625
887.0308, 40.91119
887.5129, 40.92155
887.9950, 40.67157
888.4771, 40.51998
888.9592, 40.62553
889.4413, 40.76501
889.9235, 40.69881
890.4056, 40.50360
890.8877, 40.49056
891.3698, 40.79332
891.8519, 41.02995
892.3340, 41.16083
892.8162, 41.19492
893.2983, 41.02914
893.7804, 40.81997
894.2625, 40.81584
894.7446, 41.04742
895.2267, 41.28430
895.7089, 41.35321
896.1910, 41.40331
896.6731, 41.63949
897.1552, 41.93740
897.6373, 42.03393
898.1194, 41.93456
898.6016, 41.87055
899.0837, 41.97499
899.5658, 42.15628
900.0479, 42.25081
900.5300, 42.27818
901.0121, 42.42846
901.4943, 42.71731
901.9764, 42.95342
902.4585, 43.05475
902.9406, 43.14870
903.4227, 43.39795
903.9048, 43.76537
904.3870, 43.89956
904.8691, 43.59287
905.3512, 43.47463
905.8333, 43.75339
906.3154, 44.04557
906.7975, 44.16379
907.2797, 44.18147
907.7618, 44.18657
908.2439, 44.17718
908.7260, 44.25920
909.2081, 44.62166
909.6902, 44.88856
910.1724, 44.77023
910.6545, 44.53622
911.1366, 44.45554
911.6187, 44.54842
912.1008, 44.74220
912.5829, 45.03168
913.0651, 45.27446
913.5472, 45.30406
914.0293, 45.21941
914.5114, 45.14353
914.9935, 45.10565
915.4756, 45.21754
915.9578, 45.49756
916.4398, 45.69165
916.9219, 45.51448
917.4041, 45.10025
917.8862, 44.87651
918.3683, 44.84481
918.8504, 44.88544
919.3325, 45.00500
919.8146, 45.06821
920.2968, 44.98046
920.7789, 44.81816
921.2610, 44.72232
921.7431, 44.70095
922.2252, 44.69112
922.7073, 44.62697
923.1895, 44.68074
923.6716, 45.02770
924.1537, 45.38868
924.6358, 45.48650
925.1179, 45.42907
925.6000, 45.59528
926.0822, 46.15752
926.5643, 46.63934
927.0464, 46.89729
927.5285, 47.06843
928.0106, 47.17137
928.4927, 47.27382
928.9749, 47.46841
929.4570, 47.76055
929.9391, 48.06773
930.4212, 48.37923
930.9033, 48.63367
931.3854, 48.69454
931.8676, 48.70410
932.3497, 48.89061
932.8318, 49.25161
933.3139, 49.71233
933.7960, 50.23431
934.2781, 50.66199
934.7603, 50.75582
935.2424, 50.62600
935.7245, 50.67744
936.2066, 50.88472
936.6887, 50.89797
937.1708, 50.62840
937.6530, 50.39991
938.1351, 50.46657
938.6172, 50.68040
939.0993, 50.67420
939.5814, 50.42295
940.0635, 50.08028
940.5457, 49.61326
941.0278, 49.13043
941.5099, 48.67585
941.9920, 48.20526
942.4741, 47.65392
942.9562, 47.03407
943.4384, 46.47657
943.9205, 46.07289
944.4026, 45.59179
944.8847, 44.90894
945.3668, 44.27147
945.8489, 43.81298
946.3311, 43.46924
946.8132, 43.13717
947.2953, 42.80754
947.7774, 42.57207
948.2595, 42.55732
948.7416, 42.52837
949.2238, 42.30134
949.7059, 42.05190
950.1880, 42.00686
950.6701, 42.09237
951.1522, 42.05304
951.6343, 41.79589
952.1165, 41.54631
952.5986, 41.51174
953.0807, 41.57549
953.5628, 41.54988
954.0449, 41.49888
954.5270, 41.63334
955.0092, 41.94867
955.4913, 42.17836
955.9734, 42.14590
956.4555, 41.98687
956.9376, 41.87247
957.4197, 41.82069
957.9019, 41.98330
958.3840, 42.35662
958.8661, 42.60628
959.3482, 42.61479
959.8303, 42.60254
960.3124, 42.78969
960.7946, 43.11061
961.2767, 43.29604
961.7588, 43.31607
962.2409, 43.36041
962.7230, 43.45728
963.2051, 43.52747
963.6873, 43.49892
964.1694, 43.47520
964.6515, 43.60550
965.1336, 43.88999
965.6157, 44.12973
966.0978, 44.33810
966.5800, 44.47880
967.0621, 44.48425
967.5442, 44.49264
968.0263, 44.57612
968.5084, 44.70613
968.9905, 44.84678
969.4727, 44.99809
969.9548, 45.10732
970.4369, 45.19325
970.9190, 45.19555
971.4011, 45.01332
971.8832, 44.80397
972.3654, 44.73101
972.8475, 44.74311
973.3296, 44.66872
973.8117, 44.44622
974.2938, 44.27503
974.7759, 44.36901
975.2581, 44.46441
975.7402, 44.34502
976.2223, 44.07008
976.7044, 43.65449
977.1865, 43.17532
977.6686, 42.88277
978.1508, 42.92743
978.6329, 43.02985
979.1150, 42.81921
979.5971, 42.49609
980.0792, 42.43998
980.5613, 42.60106
981.0435, 42.77887
981.5256, 42.91769
982.0077, 43.03732
982.4898, 43.15608
982.9719, 43.24877
983.4540, 43.24431
983.9362, 43.16373
984.4183, 43.13323
984.9004, 43.15900
985.3825, 43.16885
985.8646, 43.12955
986.3467, 43.16225
986.8289, 43.40795
987.3110, 43.80189
987.7931, 44.06567
988.2752, 44.17124
988.7573, 44.38423
989.2394, 44.75872
989.7216, 45.10863
990.2037, 45.32920
990.6858, 45.53504
991.1679, 45.90451
991.6500, 46.41785
992.1321, 46.68324
992.6143, 46.53759
993.0964, 46.51294
993.5785, 46.67779
994.0606, 46.94260
994.5427, 47.31894
995.0248, 47.73344
995.5070, 48.07415
995.9891, 48.33588
996.4712, 48.59422
996.9533, 48.77031
997.4354, 49.05782
997.9175, 49.58211
998.3997, 50.12502
998.8818, 50.58276
999.3639, 50.96062
999.8460, 51.24532
1000.328, 51.42323
1000.810, 51.71015
1001.292, 52.25914
1001.774, 52.79763
1002.257, 53.28138
1002.739, 53.65400
1003.221, 53.75122
1003.703, 53.72803
1004.185, 53.94682
1004.667, 54.51341
1005.149, 55.02900
1005.631, 55.26173
1006.114, 55.41001
1006.596, 55.57716
1007.078, 55.76117
1007.560, 56.03142
1008.042, 56.30729
1008.524, 56.32960
1009.006, 55.98623
1009.488, 55.66154
1009.970, 55.82044
1010.453, 56.01654
1010.935, 55.65660
1011.417, 55.00438
1011.899, 54.57281
1012.381, 54.38326
1012.863, 54.11268
1013.345, 53.59248
1013.827, 53.04347
1014.310, 52.81984
1014.792, 52.67189
1015.274, 52.04813
1015.756, 51.09869
1016.238, 50.28625
1016.720, 49.69251
1017.202, 49.15761
1017.684, 48.59015
1018.166, 47.97316
1018.649, 47.23061
1019.131, 46.42033
1019.613, 45.75293
1020.095, 45.22008
1020.577, 44.73978
1021.059, 44.28803
1021.541, 43.81301
1022.023, 43.26446
1022.505, 42.73252
1022.988, 42.42253
1023.470, 42.30909
1023.952, 42.04298
1024.434, 41.61657
1024.916, 41.33436
1025.398, 41.28967
1025.880, 41.23718
1026.362, 40.97647
1026.845, 40.61917
1027.327, 40.44644
1027.809, 40.47512
1028.291, 40.43346
1028.773, 40.30727
1029.255, 40.18408
1029.737, 40.07903
1030.219, 40.02358
1030.702, 40.07878
1031.184, 40.15510
1031.666, 39.95941
1032.148, 39.38004
1032.630, 39.17162
1033.112, 39.49154
1033.594, 39.73522
1034.076, 39.74120
1034.558, 39.60818
1035.041, 39.36928
1035.523, 39.08083
1036.005, 38.90896
1036.487, 38.84409
1036.969, 38.94689
1037.451, 39.38726
1037.933, 39.66478
1038.415, 39.52694
1038.897, 39.33826
1039.380, 39.44777
1039.862, 39.72968
1040.344, 39.75097
1040.826, 39.36022
1041.308, 39.15767
1041.790, 39.25802
1042.272, 39.38220
1042.754, 39.51314
1043.237, 39.59554
1043.719, 39.57933
1044.201, 39.48138
1044.683, 39.33268
1045.165, 39.07315
1045.647, 38.95000
1046.129, 39.17686
1046.611, 39.27018
1047.094, 38.94828
1047.576, 38.58511
1048.058, 38.50534
1048.540, 38.61505
1049.022, 38.63131
1049.504, 38.49578
1049.986, 38.41032
1050.468, 38.46120
1050.950, 38.48649
1051.432, 38.40807
1051.915, 38.30834
1052.397, 38.28036
1052.879, 38.27923
1053.361, 38.16022
1053.843, 37.85964
1054.325, 37.69910
1054.807, 37.88081
1055.289, 38.04174
1055.772, 38.03141
1056.254, 37.96513
1056.736, 37.91690
1057.218, 37.89559
1057.700, 37.91209
1058.182, 37.97528
1058.664, 38.00672
1059.146, 37.99166
1059.629, 37.93209
1060.111, 37.77388
1060.593, 37.62172
1061.075, 37.54551
1061.557, 37.54587
1062.039, 37.65541
1062.521, 37.88745
1063.003, 37.96738
1063.485, 37.62510
1063.968, 37.34350
1064.450, 37.37656
1064.932, 37.51163
1065.414, 37.59880
1065.896, 37.64260
1066.378, 37.69897
1066.860, 37.77472
1067.342, 37.76704
1067.824, 37.59642
1068.307, 37.38821
1068.789, 37.12397
1069.271, 36.91268
1069.753, 36.87827
1070.235, 36.94395
1070.717, 36.95271
1071.199, 36.89080
1071.681, 36.92567
1072.164, 37.26109
1072.646, 37.49784
1073.128, 37.29125
1073.610, 37.07758
1074.092, 37.28946
1074.574, 37.68258
1075.056, 37.84400
1075.538, 37.73940
1076.021, 37.62258
1076.503, 37.54718
1076.985, 37.56580
1077.467, 37.79935
1077.949, 38.03777
1078.431, 38.14080
1078.913, 38.13810
1079.395, 38.03440
1079.877, 37.87278
1080.359, 37.81254
1080.842, 37.95630
1081.324, 38.07349
1081.806, 37.99078
1082.288, 37.91574
1082.770, 38.00505
1083.252, 38.17298
1083.734, 38.32617
1084.216, 38.44859
1084.698, 38.54436
1085.181, 38.61375
1085.663, 38.66490
1086.145, 38.68111
1086.627, 38.70391
1087.109, 38.75019
1087.591, 38.82252
1088.073, 38.93050
1088.555, 39.06445
1089.038, 39.21209
1089.520, 39.37709
1090.002, 39.48479
1090.484, 39.46153
1090.966, 39.42654
1091.448, 39.43036
1091.930, 39.45968
1092.412, 39.50963
1092.895, 39.57147
1093.377, 39.62955
1093.859, 39.68103
1094.341, 39.74083
1094.823, 39.89359
1095.305, 39.94986
1095.787, 39.75684
1096.269, 39.51120
1096.751, 39.32306
1097.234, 39.20600
1097.716, 39.18518
1098.198, 39.25294
1098.680, 39.30285
1099.162, 39.33396
1099.644, 39.29486
1100.126, 39.10357
1100.608, 38.90999
1101.090, 38.83506
1101.573, 38.79150
1102.055, 38.62120
1102.537, 38.35669
1103.019, 38.24812
1103.501, 38.46409
1103.983, 38.56325
1104.465, 38.28541
1104.947, 38.06141
1105.430, 38.19115
1105.912, 38.38498
1106.394, 38.34517
1106.876, 38.12205
1107.358, 37.92604
1107.840, 37.78508
1108.322, 37.66941
1108.804, 37.53040
1109.286, 37.47532
1109.769, 37.60637
1110.251, 37.76735
1110.733, 37.88662
1111.215, 37.93666
1111.697, 37.84425
1112.179, 37.58001
1112.661, 37.39025
1113.143, 37.37413
1113.625, 37.31349
1114.108, 37.06807
1114.590, 36.88976
1115.072, 36.97221
1115.554, 37.16439
1116.036, 37.28815
1116.518, 37.34123
1117.000, 37.25956
1117.482, 36.85195
1117.965, 36.65789
1118.447, 36.83379
1118.929, 37.01558
1119.411, 37.08046
1119.893, 37.08221
1120.375, 37.04982
1120.857, 37.00292
1121.339, 37.03088
1121.822, 37.16963
1122.304, 37.27761
1122.786, 37.37707
1123.268, 37.39050
1123.750, 37.25863
1124.232, 37.11341
1124.714, 37.05817
1125.196, 37.05014
1125.678, 36.99019
1126.161, 36.87128
1126.643, 36.81348
1127.125, 36.83159
1127.607, 36.84198
1128.089, 36.81571
1128.571, 36.84488
1129.053, 36.99744
1129.535, 37.17350
1130.017, 37.22499
1130.500, 37.18077
1130.982, 37.23241
1131.464, 37.38511
1131.946, 37.58650
1132.428, 37.84893
1132.910, 37.91737
1133.392, 37.67409
1133.874, 37.41079
1134.357, 37.40583
1134.839, 37.55417
1135.321, 37.58235
1135.803, 37.51179
1136.285, 37.58971
1136.767, 37.80486
1137.249, 37.90529
1137.731, 37.83718
1138.214, 37.74337
1138.696, 37.70831
1139.178, 37.74062
1139.660, 37.87631
1140.142, 38.07820
1140.624, 38.24788
1141.106, 38.38319
1141.588, 38.45860
1142.070, 38.48441
1142.552, 38.52009
1143.035, 38.59020
1143.517, 38.68700
1143.999, 38.81625
1144.481, 38.94294
1144.963, 38.98501
1145.445, 39.00237
1145.927, 39.11413
1146.409, 39.29631
1146.892, 39.48172
1147.374, 39.64585
1147.856, 39.77307
1148.338, 39.85541
1148.820, 39.89417
1149.302, 39.82003
1149.784, 39.77031
1150.266, 39.97939
1150.749, 40.25168
1151.231, 40.24742
1151.713, 40.03846
1152.195, 39.95872
1152.677, 40.11221
1153.159, 40.22804
1153.641, 40.08632
1154.123, 39.96168
1154.605, 40.09606
1155.088, 40.23045
1155.570, 40.09015
1156.052, 39.82267
1156.534, 39.66008
1157.016, 39.63363
1157.498, 39.69465
1157.980, 39.93374
1158.462, 40.04382
1158.944, 39.90769
1159.427, 39.68025
1159.909, 39.28755
1160.391, 38.95598
1160.873, 38.97655
1161.355, 39.21826
1161.837, 39.27958
1162.319, 39.09294
1162.801, 38.94313
1163.284, 38.82729
1163.766, 38.75666
1164.248, 38.74131
1164.730, 38.76411
1165.212, 38.86756
1165.694, 38.94404
1166.176, 38.81963
1166.658, 38.52469
1167.141, 38.34547
1167.623, 38.31311
1168.105, 38.27312
1168.587, 38.21813
1169.069, 38.15861
1169.551, 38.09581
1170.033, 38.03599
1170.515, 37.90157
1170.997, 38.10275
1171.479, 38.21590
1171.962, 38.24575
1172.444, 37.94283
1172.926, 38.06962
1173.408, 38.02420
1173.890, 37.97171
1174.372, 38.15899
1174.854, 37.90446
1175.336, 38.08793
1175.819, 38.09657
1176.301, 38.18521
1176.783, 38.10059
1177.265, 38.06948
1177.747, 38.21171
1178.229, 38.25796
1178.711, 38.15339
1179.193, 38.24713
1179.676, 37.98655
1180.158, 38.03689
1180.640, 38.22137
1181.122, 38.12551
1181.604, 38.22242
1182.086, 38.24591
1182.568, 37.93576
1183.050, 38.20584
1183.532, 38.22499
1184.015, 38.00853
1184.497, 38.00521
1184.979, 37.97718
1185.461, 37.90704
1185.943, 37.84650
1186.425, 37.75979
1186.907, 37.75674
1187.389, 38.00121
1187.871, 38.30402
1188.354, 38.45839
1188.836, 38.46647
1189.318, 38.38824
1189.800, 38.18690
1190.282, 38.06934
1190.764, 38.13942
1191.246, 38.17167
1191.728, 38.08214
1192.211, 37.99976
1192.693, 37.99113
1193.175, 38.03337
1193.657, 38.11497
1194.139, 38.22266
1194.621, 38.22005
1195.103, 38.06091
1195.585, 38.00450
1196.068, 38.09367
1196.550, 38.11565
1197.032, 37.99327
1197.514, 37.87186
1197.996, 37.86039
1198.478, 37.90304
1198.960, 37.89201
1199.442, 37.85024
1199.924, 37.92999
1200.406, 38.09996
1200.889, 38.13961
1201.371, 38.04731
1201.853, 38.01500
1202.335, 38.10715
1202.817, 38.20527
1203.299, 38.21192
1203.781, 38.19312
1204.263, 38.29118
1204.746, 38.37890
1205.228, 38.17194
1205.710, 37.85180
1206.192, 37.79729
1206.674, 37.98022
1207.156, 38.11730
1207.638, 38.11155
1208.120, 38.08570
1208.603, 38.10868
1209.085, 38.13018
1209.567, 38.11882
1210.049, 38.10041
1210.531, 38.08667
1211.013, 38.08369
1211.495, 38.11272
1211.977, 38.16105
1212.459, 38.15979
1212.942, 38.06678
1213.424, 38.02237
1213.906, 38.03723
1214.388, 38.10536
1214.870, 38.27763
1215.352, 38.43167
1215.834, 38.52785
1216.316, 38.52142
1216.798, 38.30065
1217.281, 37.84982
1217.763, 38.05454
1218.245, 38.17123
1218.727, 38.20462
1219.209, 37.90523
1219.691, 38.03555
1220.173, 37.99367
1220.655, 37.94472
1221.138, 38.13554
1221.620, 37.88455
1222.102, 38.07156
1222.584, 38.08372
1223.066, 38.17591
1223.548, 38.09482
1224.030, 38.06725
1224.512, 38.21301
1224.995, 38.26280
1225.477, 38.16177
1225.959, 38.25904
1226.441, 38.00200
1226.923, 38.05587
1227.405, 38.24389
1227.887, 38.15157
1228.369, 38.25201
1228.851, 38.27903
1229.333, 37.97242
1229.816, 38.24605
1230.298, 38.26873
1230.780, 38.03377
1231.262, 38.28751
1231.744, 38.08806
1232.226, 38.05037
1232.708, 38.13442
1233.190, 38.09156
1233.673, 38.17925
1234.155, 38.26102
1234.637, 38.22205
1235.119, 38.10254
1235.601, 37.97161
1236.083, 37.82901
1236.565, 37.81584
1237.047, 37.95308
1237.530, 38.04893
1238.012, 38.08012
1238.494, 38.12215
1238.976, 38.20113
1239.458, 38.33004
1239.940, 38.53675
1240.422, 38.70381
1240.904, 38.57396
1241.386, 38.28847
1241.869, 38.18395
1242.351, 38.21393
1242.833, 38.29871
1243.315, 38.39412
1243.797, 38.41186
1244.279, 38.33311
1244.761, 38.22590
1245.243, 38.07415
1245.725, 38.04428
1246.208, 38.41486
1246.690, 38.74800
1247.172, 38.63603
1247.654, 38.41313
1248.136, 38.45148
1248.618, 38.65896
1249.100, 38.77403
1249.582, 38.76899
1250.065, 38.72135
1250.547, 38.55716
1251.029, 38.50627
1251.511, 38.66041
1251.993, 38.75150
1252.475, 38.66526
1252.957, 38.55833
1253.439, 38.54939
1253.922, 38.60326
1254.404, 38.65633
1254.886, 38.71059
1255.368, 38.79358
1255.850, 38.89690
1256.332, 38.93080
1256.814, 38.89904
1257.296, 38.90147
1257.778, 38.96061
1258.260, 38.97823
1258.743, 38.88010
1259.225, 38.80494
1259.707, 38.93098
1260.189, 39.12609
1260.671, 39.29811
1261.153, 39.40925
1261.635, 39.35032
1262.117, 39.22378
1262.600, 39.28981
1263.082, 39.53513
1263.564, 39.55073
1264.046, 39.04871
1264.528, 38.77729
1265.010, 39.09966
1265.492, 39.36250
1265.974, 39.32622
1266.457, 39.25420
1266.939, 39.33544
1267.421, 39.41092
1267.903, 39.21143
1268.385, 38.82840
1268.867, 38.83435
1269.349, 39.26157
1269.831, 39.36132
1270.313, 39.11874
1270.796, 39.07587
1271.278, 39.33489
1271.760, 39.56394
1272.242, 39.59344
1272.724, 39.51197
1273.206, 39.36546
1273.688, 39.23782
1274.170, 39.28444
1274.652, 39.39074
1275.135, 39.38633
1275.617, 39.33281
1276.099, 39.34740
1276.581, 39.43182
1277.063, 39.54976
1277.545, 39.69912
1278.027, 39.75538
1278.509, 39.61754
1278.992, 39.47896
1279.474, 39.37230
1279.956, 39.28889
1280.438, 39.21808
1280.920, 39.17981
1281.402, 39.21012
1281.884, 39.26392
1282.366, 39.23298
1282.849, 39.12202
1283.331, 39.06971
1283.813, 39.07627
1284.295, 39.13995
1284.777, 39.25734
1285.259, 39.37803
1285.741, 39.48407
1286.223, 39.56421
1286.705, 39.61467
1287.188, 39.63660
##END=



