##NAMES=Actinolite
##RRUFFID=R060045
##IDEAL CHEMISTRY=Ca_2_(Mg_4.5-2.5_Fe^2+^_0.5-2.5_)Si_8_O_22_(OH)_2_
##LOCALITY=Colorado, USA
##OWNER=RRUFF
##SOURCE=University of Arizona Mineral Museum
##DESCRIPTION=Green prismatic crystals in a radial arrangement
##STATUS=The identification of this mineral has been confirmed by X-ray diffraction and chemical analysis
##URL=rruff.info/R060045
##MEASURED CHEMISTRY=(Ca_1.99_Na_0.01_)_Σ=2_(Mg_4.20_Fe^2+^_0.59_Al_0.09_Fe^3+^_0.08_Mn_0.02_Ti_0.01_)_Σ=5_(Si_7.82_Al_0.18_)_Σ=8_O_22_(OH)_2_
##PIN_ID=M00340
##ORIENTATION=Laser parallel to -a* (-1 0 0). Fiducial mark perpendicular to laser is parallel to -b [0 -1 0]
134.1270, 0.0000000E+00
135.3560, 33.43457
136.5850, 15.26465
137.8140, 85.23438
139.0430, 356.8066
140.2710, 340.8604
141.5000, 189.8857
142.7280, 61.27832
143.9560, 274.5381
145.1840, 505.7158
146.4120, 1160.744
147.6390, 2102.212
148.8670, 2815.787
150.0940, 3374.205
151.3210, 3218.246
152.5490, 2759.824
153.7750, 2318.809
155.0020, 2001.015
156.2290, 1605.297
157.4550, 1368.535
158.6810, 1092.633
159.9080, 1050.633
161.1340, 1300.111
162.3590, 1194.366
163.5850, 1309.231
164.8110, 1606.661
166.0360, 2264.618
167.2610, 2949.060
168.4860, 3826.023
169.7110, 4034.157
170.9360, 3665.980
172.1610, 3187.068
173.3850, 2566.385
174.6100, 2343.915
175.8340, 1968.641
177.0580, 1693.556
178.2820, 1364.657
179.5050, 1303.946
180.7290, 995.4346
181.9520, 887.1328
183.1760, 544.0361
184.3990, 390.1260
185.6220, 167.4004
186.8450, 113.8555
188.0670, 199.4922
189.2900, 234.3086
190.5120, 304.2969
191.7340, 193.4473
192.9560, 543.7529
194.1780, 538.2061
195.4000, 581.7969
196.6220, 847.5225
197.8430, 1025.373
199.0640, 1107.344
200.2860, 1425.430
201.5070, 1629.626
202.7270, 2004.276
203.9480, 2434.547
205.1690, 2664.024
206.3890, 3293.033
207.6090, 4108.551
208.8290, 5079.656
210.0490, 6400.762
211.2690, 7808.871
212.4890, 9151.941
213.7080, 10067.04
214.9280, 10436.18
216.1470, 10480.37
217.3660, 10576.61
218.5850, 11205.90
219.8030, 11933.28
221.0220, 12917.78
222.2400, 13924.38
223.4590, 14066.18
224.6770, 13876.23
225.8950, 12866.47
227.1120, 11645.85
228.3300, 10427.27
229.5480, 9174.680
230.7650, 8300.402
231.9820, 7326.176
233.1990, 6565.020
234.4160, 5821.947
235.6330, 5545.949
236.8490, 5362.055
238.0660, 4994.277
239.2820, 4831.621
240.4980, 4988.109
241.7140, 4761.734
242.9300, 4334.438
244.1460, 4297.186
245.3610, 3893.955
246.5770, 3685.742
247.7920, 3260.547
249.0070, 2989.953
250.2220, 2676.199
251.4370, 2413.049
252.6510, 2113.916
253.8660, 1847.795
255.0800, 1564.691
256.2940, 1458.602
257.5080, 1286.523
258.7220, 1216.461
259.9360, 1054.406
261.1490, 845.3672
262.3630, 461.3379
263.5760, 540.3184
264.7890, 280.3125
266.0020, 281.3105
267.2150, 114.3203
268.4270, 268.3418
269.6400, 53.36719
270.8520, 76.59766
272.0640, 18.44141
273.2760, 191.5098
274.4880, 68.45898
275.7000, 156.4062
276.9120, 82.38281
278.1230, 12.41797
279.3340, 17.48438
280.5450, 18.65625
281.7560, 34.00586
282.9670, 63.61328
284.1780, 29.94922
285.3880, 112.2090
286.5980, 83.70898
287.8090, 54.42383
289.0190, 136.7227
290.2290, 153.7969
291.4380, 264.0254
292.6480, 336.3965
293.8570, 500.8926
295.0670, 649.5098
296.2760, 640.2344
297.4850, 647.0625
298.6930, 528.9844
299.9020, 424.9941
301.1110, 422.3066
302.3190, 577.4746
303.5270, 341.6738
304.7350, 459.0918
305.9430, 427.7070
307.1510, 233.6055
308.3580, 101.3770
309.5660, 247.0195
310.7730, 198.0430
311.9800, 256.8320
313.1870, 131.7891
314.3940, 6.349609
315.6010, 3.203125
316.8070, 19.61719
318.0130, 135.1992
319.2200, 38.37891
320.4260, 70.39844
321.6310, 20.56836
322.8370, 75.37109
324.0430, 25.38672
325.2480, 21.73047
326.4540, 114.0664
327.6590, 224.7344
328.8640, 399.6855
330.0680, 443.2578
331.2730, 219.8633
332.4780, 549.1465
333.6820, 523.4238
334.8860, 726.7598
336.0900, 1133.092
337.2940, 809.8984
338.4980, 1158.256
339.7010, 1476.572
340.9050, 1667.564
342.1080, 1788.213
343.3110, 1867.854
344.5140, 1943.119
345.7170, 1966.072
346.9200, 1838.139
348.1220, 1887.145
349.3240, 1995.508
350.5270, 2021.211
351.7290, 2093.131
352.9310, 2046.434
354.1320, 2274.012
355.3340, 2464.326
356.5350, 2976.646
357.7370, 3559.973
358.9380, 4104.309
360.1390, 4703.645
361.3400, 5002.992
362.5400, 5161.340
363.7410, 5061.695
364.9410, 4934.055
366.1410, 4590.414
367.3410, 4330.779
368.5410, 4097.146
369.7410, 3620.516
370.9400, 3584.885
372.1400, 3341.254
373.3390, 3312.621
374.5380, 3175.982
375.7370, 3341.342
376.9360, 3298.697
378.1350, 3893.053
379.3330, 4305.404
380.5310, 5011.752
381.7300, 5588.094
382.9280, 6624.436
384.1260, 7214.770
385.3230, 7298.100
386.5210, 7346.418
387.7180, 7046.734
388.9160, 6399.041
390.1130, 5784.342
391.3100, 5301.633
392.5060, 4805.918
393.7030, 4269.197
394.9000, 3968.465
396.0960, 3569.727
397.2920, 3545.979
398.4880, 3300.223
399.6840, 3602.457
400.8800, 3510.684
402.0750, 3932.898
403.2710, 4171.109
404.4660, 4452.307
405.6610, 4855.498
406.8560, 4902.676
408.0510, 5222.846
409.2450, 4792.004
410.4400, 4687.152
411.6340, 4578.352
412.8280, 4028.479
414.0220, 3597.596
415.2160, 3110.117
416.4100, 2864.574
417.6030, 2288.438
418.7970, 2098.150
419.9900, 1986.572
421.1830, 1698.820
422.3760, 1646.723
423.5690, 1489.551
424.7610, 1518.582
425.9540, 1977.613
427.1460, 2376.045
428.3380, 2216.080
429.5300, 2469.115
430.7220, 2174.152
431.9140, 1876.189
433.1050, 1795.238
434.2970, 1616.285
435.4880, 1323.326
436.6790, 945.3633
437.8700, 893.3965
439.0610, 601.4258
440.2510, 627.4473
441.4420, 381.4629
442.6320, 287.5273
443.8220, 20.02734
445.0120, 244.0176
446.2020, 14.00391
447.3910, 54.49414
448.5810, 28.57617
449.7700, 82.55078
450.9600, 30.08984
452.1490, 76.54102
453.3370, 15.84766
454.5260, 201.7070
455.7150, 11.56055
456.9030, 131.2168
458.0910, 101.0293
459.2800, 93.90820
460.4670, 31.68555
461.6550, 60.65234
462.8430, 150.3750
464.0300, 104.2031
465.2180, 55.50000
466.4050, 92.97852
467.5920, 5.050781
468.7790, 109.1680
469.9650, 50.28125
471.1520, 36.35352
472.3380, 72.40039
473.5250, 1.421875
474.7110, 204.4023
475.8970, 39.63672
477.0820, 153.2598
478.2680, 218.1328
479.4540, 46.01172
480.6390, 284.7715
481.8240, 36.53516
483.0090, 142.7324
484.1940, 106.8789
485.3780, 7.468750
486.5630, 49.98633
487.7470, 44.51562
488.9320, 1.886719
490.1160, 60.75195
491.3000, 204.5371
492.4830, 9.193359
493.6670, 62.02344
494.8500, 240.2246
496.0340, 118.4043
497.2170, 328.5586
498.4000, 326.6953
499.5820, 266.8125
500.7650, 328.9062
501.9480, 593.0000
503.1300, 676.0723
504.3120, 862.1504
505.4940, 1033.211
506.6760, 1100.246
507.8580, 1243.262
509.0390, 1581.314
510.2210, 1780.355
511.4020, 1865.406
512.5830, 2182.457
513.7640, 2155.496
514.9450, 2286.510
516.1250, 2433.229
517.3060, 2299.484
518.4860, 2631.465
519.6660, 2698.430
520.8460, 2736.426
522.0260, 2735.434
523.2060, 2507.428
524.3850, 2617.428
525.5650, 2220.404
526.7440, 2275.352
527.9230, 1830.277
529.1020, 1790.189
530.2810, 1573.074
531.4590, 1457.969
532.6380, 1435.883
533.8160, 1225.805
534.9940, 1134.379
536.1720, 915.5703
537.3500, 871.4102
538.5270, 804.2266
539.7050, 710.0137
540.8820, 665.7754
542.0590, 531.5098
543.2360, 492.2148
544.4130, 356.8945
545.5900, 424.5527
546.7660, 335.1855
547.9430, 325.8086
549.1190, 298.4004
550.2950, 336.0234
551.4710, 418.6191
552.6470, 227.1875
553.8220, 266.7266
554.9980, 320.2383
556.1730, 431.7188
557.3480, 160.1816
558.5230, 349.6113
559.6980, 274.0371
560.8730, 332.4434
562.0470, 299.8418
563.2220, 367.2188
564.3960, 372.5664
565.5700, 460.8867
566.7440, 393.1797
567.9170, 161.4414
569.0910, 400.6699
570.2640, 302.8691
571.4380, 439.0391
572.6110, 408.2461
573.7840, 378.3555
574.9570, 442.4707
576.1290, 290.5176
577.3020, 376.5352
578.4740, 404.9473
579.6460, 429.9023
580.8180, 275.2617
581.9900, 414.4629
583.1620, 253.3242
584.3330, 149.4219
585.5040, 379.9941
586.6760, 330.7559
587.8470, 143.5254
589.0180, 44.11523
590.1880, 22.52539
591.3590, 111.6680
592.5290, 132.9590
593.7000, 112.4004
594.8700, 71.47461
596.0400, 54.10156
597.2090, 43.28125
598.3790, 36.50781
599.5490, 12.77148
600.7180, 83.46484
601.8870, 21.99023
603.0560, 133.0918
604.2250, 38.93750
605.3940, 31.19531
606.5620, 11.01562
607.7300, 127.7754
608.8990, 245.6504
610.0670, 219.3066
611.2350, 354.6191
612.4020, 430.6426
613.5700, 401.0332
614.7370, 419.3828
615.9050, 607.0449
617.0720, 732.7012
618.2390, 947.2871
619.4060, 913.8633
620.5720, 962.9512
621.7390, 1073.717
622.9050, 841.2617
624.0710, 925.4492
625.2370, 811.9004
626.4030, 532.0684
627.5690, 599.5977
628.7340, 629.4199
629.9000, 438.0605
631.0650, 647.0781
632.2300, 752.6719
633.3950, 862.0742
634.5600, 1036.447
635.7240, 1104.648
636.8890, 1350.559
638.0530, 1502.889
639.2170, 1653.062
640.3810, 1983.418
641.5450, 1985.676
642.7080, 1978.805
643.8720, 2532.416
645.0350, 2773.395
646.1980, 2612.693
647.3610, 3075.035
648.5240, 3352.453
649.6870, 3300.941
650.8490, 3783.512
652.0120, 3957.762
653.1740, 4538.066
654.3360, 5017.844
655.4980, 5931.279
656.6600, 6818.000
657.8210, 8290.543
658.9830, 9768.010
660.1440, 12405.03
661.3050, 14919.24
662.4660, 18150.89
663.6270, 22073.08
664.7870, 25233.82
665.9480, 27924.31
667.1080, 29009.95
668.2680, 28456.09
669.4280, 26992.77
670.5880, 24565.86
671.7480, 21878.69
672.9070, 19609.79
674.0670, 16646.20
675.2260, 14064.62
676.3850, 11750.83
677.5440, 9792.652
678.7030, 8267.156
679.8610, 6779.271
681.0200, 5851.355
682.1780, 5031.412
683.3360, 4181.436
684.4940, 3600.543
685.6520, 3319.504
686.8090, 2857.775
687.9670, 2425.682
689.1240, 2216.711
690.2810, 1917.551
691.4380, 1471.439
692.5950, 1437.152
693.7520, 1368.898
694.9080, 1435.613
696.0650, 1169.295
697.2210, 1008.588
698.3770, 1028.207
699.5330, 741.8008
700.6880, 601.3594
701.8440, 525.8887
702.9990, 402.1777
704.1550, 434.8555
705.3100, 281.2930
706.4650, 401.7012
707.6190, 305.6836
708.7740, 333.0312
709.9290, 264.3496
711.0830, 239.6680
712.2370, 353.8965
713.3910, 244.1289
714.5450, 276.3262
715.6980, 403.4980
716.8520, 147.6367
718.0050, 248.7461
719.1580, 142.8262
720.3110, 171.8730
721.4640, 323.8887
722.6170, 178.8164
723.7700, 269.2754
724.9220, 242.2051
726.0740, 360.1074
727.2260, 402.4434
728.3780, 357.1543
729.5300, 262.0312
730.6810, 434.0801
731.8330, 435.2734
732.9840, 469.2676
734.1350, 667.6797
735.2860, 447.9863
736.4370, 543.0430
737.5880, 668.1172
738.7380, 747.3242
739.8880, 871.0176
741.0390, 941.1152
742.1890, 1074.496
743.3380, 1112.732
744.4880, 1170.457
745.6380, 1142.463
746.7870, 1065.504
747.9360, 963.9238
749.0850, 882.5996
750.2340, 787.4082
751.3830, 688.9199
752.5310, 573.5508
753.6800, 451.1738
754.8280, 291.7754
755.9760, 227.3789
757.1240, 307.9609
758.2720, 437.5215
759.4190, 111.0859
760.5670, 231.6289
761.7140, 87.15430
762.8610, 100.7109
764.0080, 333.2441
765.1550, 252.7695
766.3020, 234.3027
767.4480, 0.8398440
768.5950, 11.35156
769.7410, 80.85938
770.8870, 43.34570
772.0330, 14.17773
773.1780, 157.2598
774.3240, 214.6777
775.4690, 10.07812
776.6140, 135.4473
777.7590, 82.80078
778.9040, 55.86523
780.0490, 122.4023
781.1940, 79.34570
782.3380, 9.830078
783.4820, 57.97852
784.6260, 43.10547
785.7700, 207.7852
786.9140, 18.81836
788.0580, 100.8926
789.2010, 65.04883
790.3450, 19.27148
791.4880, 188.4688
792.6310, 7.806641
793.7730, 122.8867
794.9160, 107.4355
796.0590, 11.84180
797.2010, 181.2793
798.3430, 121.8379
799.4850, 34.48633
800.6270, 92.17383
801.7690, 48.06250
802.9100, 101.2852
804.0520, 55.49414
805.1930, 33.31055
806.3340, 27.84570
807.4750, 115.0117
808.6160, 159.9453
809.7560, 117.9883
810.8970, 49.89258
812.0370, 38.75977
813.1770, 163.6172
814.3170, 212.4609
815.4570, 180.3223
816.5960, 215.6191
817.7360, 151.9355
818.8750, 102.7402
820.0140, 175.5371
821.1530, 21.67383
822.2920, 352.0938
823.4310, 75.15039
824.5690, 50.56055
825.7070, 217.7383
826.8460, 176.8418
827.9840, 24.41406
829.1220, 298.9785
830.2590, 210.5371
831.3970, 94.08984
832.5340, 248.6367
833.6710, 141.1738
834.8080, 231.7109
835.9450, 236.2383
837.0820, 385.7637
838.2190, 412.2832
839.3550, 376.7988
840.4910, 374.3105
841.6270, 470.8164
842.7630, 598.3164
843.8990, 534.8145
845.0350, 455.3105
846.1700, 640.8027
847.3060, 503.2930
848.4410, 590.7109
849.5760, 705.1953
850.7100, 527.6387
851.8450, 721.1172
852.9800, 862.5957
854.1140, 631.6465
855.2480, 719.1211
856.3820, 972.1602
857.5160, 817.3242
858.6500, 661.7949
859.7830, 1051.002
860.9170, 832.4766
862.0500, 736.9492
863.1830, 578.4238
864.3160, 656.9004
865.4480, 588.3887
866.5810, 574.8906
867.7130, 393.3945
868.8460, 472.9043
869.9780, 331.4219
871.1100, 605.9453
872.2410, 620.5117
873.3730, 492.0820
874.5050, 347.6660
875.6360, 336.2617
876.7670, 500.8652
877.8980, 482.4785
879.0290, 494.1426
880.1590, 351.8262
881.2900, 473.5332
882.4200, 315.2559
883.5500, 495.9961
884.6800, 649.7598
885.8100, 463.5293
886.9400, 579.3516
888.0690, 596.7402
889.1990, 596.9883
890.3280, 614.8418
891.4570, 766.6992
892.5860, 645.5586
893.7140, 755.4238
894.8430, 611.3125
895.9710, 701.9902
897.1000, 652.9336
898.2280, 790.5488
899.3560, 753.2305
900.4830, 794.1895
901.6110, 748.1504
902.7380, 867.1191
903.8660, 784.1406
904.9930, 864.8926
906.1200, 844.4844
907.2460, 921.9336
908.3730, 920.2070
909.5000, 818.2480
910.6260, 988.2988
911.7520, 1012.207
912.8780, 1132.221
914.0040, 1311.078
915.1290, 1277.035
916.2550, 1595.100
917.3800, 1745.664
918.5050, 2084.842
919.6300, 2259.684
920.7550, 2682.467
921.8800, 2895.158
923.0040, 3385.760
924.1290, 3794.322
925.2530, 3671.215
926.3770, 3979.037
927.5010, 3744.406
928.6250, 3732.100
929.7480, 3340.494
930.8720, 2911.051
931.9950, 2874.666
933.1180, 2723.713
934.2410, 2091.557
935.3640, 1641.949
936.4860, 1697.791
937.6090, 1616.055
938.7310, 1558.564
939.8530, 1684.912
940.9750, 1550.758
942.0970, 1456.057
943.2180, 1555.922
944.3400, 1335.045
945.4610, 1173.908
946.5820, 1494.445
947.7030, 1191.967
948.8240, 1013.688
949.9450, 1017.424
951.0650, 887.2129
952.1860, 883.0195
953.3060, 620.8457
954.4260, 856.6914
955.5460, 776.5566
956.6650, 714.3262
957.7850, 494.2305
958.9040, 595.8145
960.0230, 461.7520
961.1420, 429.6152
962.2610, 603.6582
963.3800, 528.6406
964.4990, 496.7246
965.6170, 470.8301
966.7350, 415.9590
967.8530, 378.1074
968.9710, 415.2773
970.0890, 349.8984
971.2070, 277.6797
972.3240, 279.9160
973.4410, 380.1719
974.5580, 358.4473
975.6750, 374.7480
976.7920, 490.0723
977.9090, 505.4160
979.0250, 400.7793
980.1410, 726.1680
981.2580, 577.5801
982.3740, 500.0117
983.4890, 579.4688
984.6050, 478.9453
985.7200, 640.4453
986.8360, 494.9688
987.9510, 494.5117
989.0660, 540.0840
990.1810, 797.6758
991.2950, 788.2910
992.4100, 860.9297
993.5240, 798.5938
994.6390, 1193.281
995.7530, 1171.992
996.8660, 1553.725
997.9800, 1716.480
999.0940, 1741.258
1000.207, 1786.059
1001.320, 1807.881
1002.433, 1746.934
1003.546, 1627.805
1004.659, 1794.695
1005.772, 1871.520
1006.884, 1897.457
1007.996, 2061.484
1009.108, 2150.398
1010.220, 2341.510
1011.332, 2446.537
1012.444, 2638.584
1013.555, 2818.910
1014.666, 3036.002
1015.777, 3207.119
1016.888, 3620.732
1017.999, 4060.191
1019.110, 5131.107
1020.220, 5265.678
1021.331, 6149.898
1022.441, 7030.660
1023.551, 7661.924
1024.661, 7832.203
1025.770, 8150.504
1026.880, 7723.824
1027.989, 7319.004
1029.098, 6631.883
1030.207, 5776.355
1031.316, 5111.758
1032.425, 4501.180
1033.533, 3715.625
1034.642, 3438.088
1035.750, 2832.570
1036.858, 2589.074
1037.966, 2324.604
1039.073, 2394.160
1040.181, 2499.738
1041.288, 2439.336
1042.396, 2409.969
1043.503, 2462.621
1044.610, 2789.289
1045.716, 3220.391
1046.823, 3814.115
1047.929, 3968.125
1049.036, 4411.898
1050.142, 4692.691
1051.248, 5231.529
1052.353, 5528.395
1053.459, 5828.408
1054.564, 6025.312
1055.670, 6143.295
1056.775, 5542.383
1057.880, 5583.975
1058.985, 5222.076
1060.089, 5397.285
1061.194, 5023.434
1062.298, 5044.605
1063.402, 4852.793
1064.506, 4691.070
1065.610, 4181.336
1066.713, 3626.668
1067.817, 3488.053
1068.920, 3233.467
1070.023, 2560.928
1071.126, 2440.711
1072.229, 2002.203
1073.332, 1675.439
1074.435, 1472.977
1075.537, 1392.527
1076.639, 1312.127
1077.741, 1222.426
1078.843, 1050.133
1079.945, 933.7324
1081.046, 1088.469
1082.148, 851.2168
1083.249, 896.8867
1084.350, 717.6602
1085.451, 867.4473
1086.551, 794.2480
1087.652, 856.0605
1088.752, 670.8848
1089.853, 679.7266
1090.953, 572.5840
1092.053, 519.5312
1093.152, 450.5547
1094.252, 464.5215
1095.351, 492.5000
1096.451, 485.4883
1097.550, 601.4922
1098.649, 216.5117
1099.748, 419.5469
1100.846, 571.5898
1101.945, 735.6406
1103.043, 430.7070
1104.141, 499.7812
1105.239, 450.8633
1106.337, 388.9570
1107.434, 385.0586
1108.532, 336.1719
1109.629, 365.2930
1110.726, 432.4219
1111.823, 356.5625
1112.920, 513.7070
1114.017, 209.8633
1115.113, 322.0312
1116.210, 555.2031
1117.306, 348.3906
1118.402, 238.5820
1119.498, 133.7773
1120.593, 496.9844
1121.689, 213.1992
1122.784, 139.4219
1123.879, 572.6562
1124.974, 262.8906
1126.069, 189.1328
1127.164, 263.3906
1128.259, 195.6484
1129.353, 297.9141
1130.447, 197.1875
1131.541, 124.4727
1132.635, 177.7617
1133.729, 7.937500
1134.822, 98.36719
1135.916, 206.6719
1137.009, 132.0117
1138.102, 288.2461
1139.195, 182.5078
1140.288, 208.7852
1141.380, 1.941406
1142.473, 32.51562
1143.565, 238.6250
1144.657, 27.08594
1145.749, 115.1914
1146.841, 5.480469
1147.932, 66.23047
1149.024, 74.96875
1150.115, 69.26172
1151.206, 127.5078
1152.297, 102.6680
1153.388, 144.1602
1154.479, 36.94922
1155.569, 163.0586
1156.659, 232.1758
1157.750, 189.2969
1158.839, 64.53516
1159.929, 107.3984
1161.019, 50.31641
1162.108, 98.74609
1163.198, 44.80078
1164.287, 266.8672
1165.376, 161.9336
1166.465, 222.0078
1167.553, 184.0859
1168.642, 103.1680
1169.730, 164.2500
1170.818, 192.3359
1171.906, 138.5742
1172.994, 209.4375
1174.082, 47.44922
1175.170, 275.4688
1176.257, 78.51953
1177.344, 71.54297
1178.431, 25.62109
1179.518, 193.2891
1180.605, 72.19531
1181.691, 97.10156
1182.778, 90.01562
1183.864, 20.92578
1184.950, 241.8320
1186.036, 111.7461
1187.122, 210.3438
1188.207, 73.55859
1189.292, 208.1836
1190.378, 113.0781
1191.463, 177.5938
1192.548, 348.2617
1193.632, 243.9297
1194.717, 32.59766
1195.801, 110.2617
1196.886, 121.9258
1197.970, 280.5898
1199.054, 186.6914
1200.137, 68.91406
1201.221, 24.57031
1202.305, 60.22266
1203.388, 38.12500
1204.471, 224.4844
1205.554, 50.09766
1206.637, 177.7070
1207.719, 82.67969
1208.802, 70.86328
1209.884, 13.40625
1210.966, 247.9375
1212.048, 193.4688
1213.130, 85.00781
1214.212, 137.4531
1215.293, 122.9102
1216.374, 97.36328
1217.456, 182.8125
1218.536, 103.2617
1219.617, 301.7070
1220.698, 469.1484
1221.778, 113.5859
1222.859, 181.9805
1223.939, 194.3359
1225.019, 340.6523
1226.099, 238.9609
1227.178, 143.2617
1228.258, 147.1016
1229.337, 118.7695
1230.417, 92.09766
1231.496, 223.9805
1232.574, 122.2617
1233.653, 312.5430
1234.732, 446.8164
1235.810, 534.5117
1236.888, 563.3594
1237.966, 662.6172
1239.044, 625.5781
1240.122, 635.6836
1241.199, 522.3828
1242.277, 520.6289
1243.354, 417.8633
1244.431, 228.0977
1245.508, 317.3320
1246.585, 539.5547
1247.661, 560.7773
1248.738, 429.9922
1249.814, 404.2070
1250.890, 280.4102
1251.966, 442.6172
1253.042, 308.8125
1254.117, 336.1211
1255.193, 268.2422
1256.268, 329.4531
1257.343, 181.6562
1258.418, 168.8711
1259.493, 426.0859
1260.567, 246.2891
1261.642, 390.5195
1262.716, 737.7109
1263.790, 622.6992
1264.864, 501.8828
1265.938, 507.0625
1267.011, 686.3359
1268.085, 567.5039
1269.158, 581.6758
1270.231, 832.8398
1271.304, 671.8867
1272.377, 576.0430
1273.450, 689.1875
1274.522, 719.0820
1275.594, 725.2227
1276.666, 686.3594
1277.738, 640.9414
1278.810, 718.1016
1279.882, 490.2305
1280.953, 373.9766
1282.025, 296.0977
1283.096, 541.6875
1284.167, 531.8047
1285.238, 572.5586
1286.308, 471.6680
1287.379, 489.2305
1288.449, 590.4961
1289.519, 586.0742
1290.589, 663.0859
1291.659, 562.1836
1292.729, 693.2812
1293.798, 632.3750
1294.868, 773.4805
1295.937, 677.5703
1297.006, 420.6602
1298.075, 771.7461
1299.143, 488.8320
1300.212, 272.9102
1301.280, 420.9922
1302.348, 367.0703
1303.416, 605.1484
1304.484, 645.2227
1305.552, 600.8906
1306.620, 532.9531
1307.687, 395.7461
1308.754, 754.8164
1309.821, 656.8828
1310.888, 641.9492
1311.955, 790.0156
1313.021, 674.9453
1314.088, 799.0078
1315.154, 882.0742
1316.220, 1078.055
1317.286, 939.5898
1318.352, 780.6562
1319.417, 862.6484
1320.483, 641.7227
1321.548, 680.7891
1322.613, 557.8555
1323.678, 554.8789
1324.743, 545.9492
1325.807, 552.0195
1326.872, 283.0859
1327.936, 362.1562
1329.000, 480.2305
1330.064, 573.9922
1331.128, 26.06641
1332.191, 360.4062
1333.255, 266.4805
1334.318, 210.5586
1335.381, 339.6367
1336.444, 211.0820
1337.507, 270.1680
1338.569, 229.6680
1339.632, 236.7227
1340.694, 156.5352
1341.756, 254.7148
1342.818, 270.8047
1343.880, 231.8945
1344.941, 108.9922
1346.003, 265.0938
1347.064, 174.1992
1348.125, 119.3008
1349.186, 256.4141
1350.247, 390.5312
1351.308, 266.4727
1352.368, 12.60156
1353.428, 267.7305
1354.489, 42.87109
1355.549, 58.99609
1356.608, 222.1289
1357.668, 377.2656
1358.727, 93.40234
1359.787, 14.54297
1360.846, 150.6953
1361.905, 288.8477
1362.964, 201.0078
1364.022, 247.1758
1365.081, 86.34766
1366.139, 336.5273
1367.197, 291.7070
1368.255, 206.8242
1369.313, 298.9453
1370.371, 391.0742
1371.428, 465.2070
1372.486, 458.6250
1373.543, 222.4727
1374.600, 430.6172
1375.657, 286.7656
1376.713, 312.9180
1377.770, 269.0781
1378.826, 368.2461
1379.882, 363.4297
1380.938, 405.7109
1381.994, 500.9023
1383.050, 423.5547
1384.106, 397.2266
1385.161, 286.1523
1386.216, 219.4219
1387.271, 86.64062
1388.326, 29.12891
1389.381, 212.1055
1390.435, 159.3477
1391.490, 491.5938
1392.544, 313.9609
1393.598, 240.4023
1394.652, 361.7344
1395.705, 247.0469
1396.759, 128.3672
1397.812, 238.6992
1398.866, 175.0391
1399.919, 358.3867
1400.972, 236.7461
1402.024, 446.1211
1403.077, 364.5039
1404.129, 334.8984
1405.181, 141.3164
1406.233, 192.7656
1407.285, 67.39062
1408.337, 53.46094
1409.389, 272.4023
1410.440, 61.96484
1411.491, 21.45703
1412.542, 20.12891
1413.593, 186.2695
1414.644, 188.1992
1415.695, 284.6992
1416.745, 289.1797
1417.795, 185.2969
1418.845, 78.80469
1419.895, 132.6797
1420.945, 30.74219
1421.995, 273.8398
1423.044, 188.6523
1424.093, 395.1953
1425.142, 263.7422
1426.191, 394.2969
1427.240, 290.8633
1428.289, 191.4688
1429.337, 347.0820
1430.385, 432.6992
1431.433, 492.3242
1432.481, 501.9883
1433.529, 379.6562
1434.577, 559.3398
1435.624, 801.0117
1436.672, 833.6992
1437.719, 714.5234
1438.766, 1101.234
1439.812, 1012.961
1440.859, 1156.723
1441.905, 994.4961
1442.952, 1504.324
1443.998, 1609.211
1445.044, 1475.480
1446.090, 1279.469
1447.135, 1261.117
1448.181, 1292.883
1449.226, 1499.656
1450.271, 1620.441
1451.316, 1663.238
1452.361, 1616.043
1453.405, 1470.895
1454.450, 1488.488
1455.494, 1293.695
1456.538, 1387.652
1457.582, 1482.656
1458.626, 1400.703
1459.670, 1476.773
1460.713, 1295.852
1461.757, 1368.949
1462.800, 1188.188
1463.843, 868.4375
1464.886, 850.7578
1465.928, 636.0195
1466.971, 1001.305
1468.013, 713.5977
1469.055, 1000.918
1470.097, 589.2578
1471.139, 658.6133
1472.181, 730.0000
1473.222, 715.3984
1474.263, 589.8203
1475.305, 779.2695
1476.346, 647.7461
1477.386, 592.1680
1478.427, 838.6172
1479.468, 671.0508
1480.508, 555.1016
1481.548, 666.5586
1482.588, 697.0430
1483.628, 457.5469
1484.668, 326.0742
1485.707, 461.6250
1486.747, 154.1992
1487.786, 317.7930
1488.825, 326.4141
1489.864, 205.0625
1490.902, 312.7266
1491.941, 422.4141
1492.979, 105.5664
1494.017, 273.0664
1495.055, 235.5859
1496.093, 189.1211
1497.131, 305.9766
1498.168, 154.5273
1499.206, 54.08984
1500.243, 283.6797
1501.280, 35.28516
1502.317, 244.9141
1503.354, 225.5703
1504.390, 20.24219
1505.426, 107.0625
1506.463, 251.6523
1507.499, 235.3906
1508.535, 153.1367
1509.570, 66.10938
1510.606, 20.69141
1511.641, 122.5156
1512.676, 202.3633
1513.711, 235.2383
1514.746, 219.1328
1515.781, 417.0430
1516.816, 16.97656
1517.850, 2.929688
1518.884, 39.96484
1519.918, 52.02344
1520.952, 108.0938
1521.986, 211.1875
1523.019, 511.2930
1524.053, 462.4180
1525.086, 243.5586
1526.119, 470.7344
1527.152, 315.9531
1528.185, 138.1875
1529.217, 468.4453
1530.250, 301.7148
1531.282, 31.00000
1532.314, 238.5625
1533.346, 358.3945
1534.377, 450.3086
1535.409, 438.3125
1536.440, 241.3789
1537.472, 432.5156
1538.503, 232.5508
1539.534, 344.0742
1540.564, 278.8398
1541.595, 11.30469
1542.625, 422.7422
1543.656, 4.226563
1544.686, 70.43750
1545.716, 58.21484
1546.745, 9.093750
1547.775, 213.9141
1548.804, 174.6719
1549.834, 153.3398
1550.863, 116.9102
1551.892, 311.2500
1552.920, 183.4258
1553.949, 367.3281
1554.977, 478.6445
1556.006, 331.0547
1557.034, 446.7734
1558.062, 497.2031
1559.089, 374.0977
1560.117, 260.1992
1561.144, 72.28516
1562.172, 112.5312
1563.199, 216.9414
1564.226, 111.6406
1565.252, 119.7578
1566.279, 378.3164
1567.305, 279.4766
1568.332, 1.191406
1569.358, 186.6602
1570.384, 0.0000000E+00
##END=



