##NAMES=Aegirine
##RRUFFID=R050074
##IDEAL CHEMISTRY=NaFe^3+^Si_2_O_6_
##LOCALITY=Mt. Malosa, Zomba, Chilwa, Alkaline Area, Malawi
##OWNER=RRUFF
##SOURCE=Rock Currier
##DESCRIPTION=Black prismatic single crystal
##STATUS=The identification of this mineral has been confirmed by X-ray diffraction and chemical analysis
##URL=rruff.info/R050074
##MEASURED CHEMISTRY=(Na_0.98_Ca_0.02_)_Σ=1_(Fe^3+^_0.96_Ti_0.01_Mn_0.03_)_Σ=1_Si_2.00_O_6_
##PIN_ID=L00435
##ORIENTATION=Laser parallel to a* (1 0 0). Fiducial mark perpendicular to laser is parallel to -b [0 -1 0]
138.841, 0.000
140.229, 88.254
141.617, 178.207
143.004, 117.505
144.392, 73.414
145.779, 122.691
147.165, 178.808
148.552, 2.200
149.938, 4.719
151.324, 33.001
152.710, 90.625
154.096, 12.792
155.481, 209.048
156.866, 262.240
158.251, 472.532
159.636, 506.162
161.020, 598.071
162.405, 559.115
163.789, 550.590
165.172, 407.432
166.556, 249.827
167.939, 127.917
169.322, 116.427
170.705, 67.023
172.088, 143.228
173.470, 189.065
174.853, 311.512
176.234, 359.616
177.616, 410.535
178.998, 472.398
180.379, 553.935
181.760, 615.562
183.141, 576.988
184.521, 647.670
185.902, 718.461
187.282, 946.694
188.662, 1299.080
190.042, 1677.562
191.421, 2041.726
192.800, 2189.269
194.179, 2305.361
195.558, 2078.839
196.937, 2032.466
198.315, 1674.093
199.693, 1462.841
201.071, 1233.033
202.449, 1063.338
203.826, 1002.678
205.203, 903.571
206.580, 946.383
207.957, 938.609
209.333, 1008.013
210.710, 1152.329
212.086, 1197.337
213.462, 1324.540
214.837, 1315.896
216.213, 1414.403
217.588, 955.878
218.963, 668.297
220.337, 537.629
221.712, 363.925
223.086, 229.349
224.460, 172.873
225.834, 127.471
227.207, 24.108
228.581, 44.776
229.954, 61.468
231.327, 24.184
232.699, 5.907
234.072, 17.374
235.444, 29.328
236.816, 23.996
238.188, 16.384
239.559, 7.806
240.931, 49.265
242.302, 61.235
243.673, 0.688
245.043, 53.090
246.414, 93.432
247.784, 97.708
249.154, 23.915
250.523, 49.048
251.893, 16.104
253.262, 20.921
254.631, 58.973
256.000, 35.212
257.369, 10.478
258.737, 5.179
260.105, 30.242
261.473, 93.260
262.841, 161.684
264.208, 128.013
265.576, 208.226
266.943, 223.309
268.310, 214.258
269.676, 251.114
271.042, 201.781
272.409, 283.696
273.775, 252.875
275.140, 295.120
276.506, 283.428
277.871, 367.261
279.236, 386.327
280.601, 414.337
281.965, 505.914
283.330, 517.703
284.694, 540.497
286.058, 653.533
287.421, 715.432
288.785, 823.155
290.148, 832.204
291.511, 937.078
292.874, 942.552
294.236, 895.000
295.599, 904.407
296.961, 871.497
298.323, 827.726
299.684, 754.666
301.046, 818.356
302.407, 742.789
303.768, 761.631
305.129, 909.983
306.489, 971.980
307.850, 1075.758
309.210, 1214.820
310.570, 1289.883
311.929, 1408.708
313.289, 1356.555
314.648, 1329.937
316.007, 1169.664
317.366, 1058.803
318.724, 993.058
320.083, 1005.751
321.441, 1002.463
322.799, 978.755
324.156, 1014.809
325.514, 1071.248
326.871, 1128.354
328.228, 1268.710
329.585, 1445.937
330.941, 1624.034
332.298, 1863.536
333.654, 2089.821
335.010, 2311.609
336.365, 2538.688
337.721, 2716.812
339.076, 2786.180
340.431, 2837.445
341.786, 2780.610
343.140, 2625.679
344.495, 2490.649
345.849, 2364.495
347.203, 2148.184
348.556, 1988.718
349.910, 1849.079
351.263, 1650.258
352.616, 1491.261
353.969, 1378.050
355.321, 1377.701
356.674, 1263.245
358.026, 1318.676
359.378, 1307.991
360.729, 1379.170
362.081, 1387.183
363.432, 1537.052
364.783, 1526.845
366.134, 1515.573
367.484, 1619.241
368.835, 1569.853
370.185, 1507.412
371.535, 1428.921
372.884, 1443.387
374.234, 1291.815
375.583, 1256.205
376.932, 1354.557
378.281, 1387.871
379.630, 1442.145
380.978, 1566.379
382.326, 1665.574
383.674, 1806.730
385.022, 1880.430
386.369, 1909.527
387.717, 1906.268
389.064, 1778.590
390.411, 1587.468
391.757, 1468.732
393.104, 1247.230
394.450, 1025.011
395.796, 882.170
397.141, 697.886
398.487, 632.680
399.832, 491.320
401.177, 425.007
402.522, 359.201
403.867, 228.762
405.211, 257.911
406.555, 232.539
407.899, 233.496
409.243, 205.927
410.587, 185.590
411.930, 205.668
413.273, 130.407
414.616, 118.453
415.959, 84.494
417.301, 107.253
418.644, 34.331
419.986, 33.927
421.327, 13.424
422.669, 28.292
424.010, 11.663
425.351, 27.147
426.692, 3.691
428.033, 4.029
429.374, 45.350
430.714, 8.234
432.054, 27.070
433.394, 61.632
434.733, 10.084
436.073, 20.377
437.412, 2.283
438.751, 41.155
440.090, 50.304
441.428, 36.442
442.767, 10.469
444.105, 13.487
445.443, 67.532
446.780, 36.630
448.118, 61.732
449.455, 31.969
450.792, 45.969
452.129, 68.883
453.465, 108.730
454.802, 115.629
456.138, 133.590
457.474, 135.642
458.809, 153.996
460.145, 152.300
461.480, 176.208
462.815, 169.989
464.150, 157.728
465.485, 175.416
466.819, 156.059
468.153, 128.614
469.487, 140.128
470.821, 121.646
472.155, 128.891
473.488, 81.012
474.821, 124.370
476.154, 165.552
477.487, 104.676
478.819, 137.757
480.151, 187.760
481.483, 150.879
482.815, 222.990
484.147, 251.967
485.478, 290.795
486.809, 261.565
488.140, 360.212
489.471, 397.731
490.802, 501.402
492.132, 664.851
493.462, 837.256
494.792, 949.492
496.122, 1144.770
497.451, 1185.994
498.780, 1240.328
500.109, 1072.539
501.438, 920.666
502.767, 841.582
504.095, 686.438
505.423, 574.256
506.751, 555.033
508.079, 507.770
509.406, 497.466
510.734, 478.299
512.061, 461.537
513.388, 475.314
514.714, 464.853
516.041, 505.354
517.367, 554.818
518.693, 601.245
520.019, 618.635
521.344, 704.990
522.670, 707.309
523.995, 855.593
525.320, 925.843
526.644, 1001.058
527.969, 1141.240
529.293, 1228.387
530.617, 1230.500
531.941, 1388.580
533.265, 1429.626
534.588, 1633.639
535.911, 1792.618
537.234, 2050.613
538.557, 2348.648
539.880, 2786.594
541.202, 3162.533
542.524, 3535.565
543.846, 3651.095
545.168, 3879.290
546.489, 3669.337
547.811, 3584.058
549.132, 3358.879
550.453, 3029.754
551.773, 3091.538
553.094, 2894.343
554.414, 2896.130
555.734, 2926.894
557.054, 2980.599
558.374, 3099.307
559.693, 3082.893
561.012, 3158.494
562.331, 3198.904
563.650, 3029.728
564.968, 2864.533
566.287, 2622.365
567.605, 2430.232
568.923, 2212.978
570.240, 2060.473
571.558, 1859.956
572.875, 1753.304
574.192, 1571.486
575.509, 1467.432
576.825, 1374.927
578.142, 1229.341
579.458, 1169.792
580.774, 1087.012
582.090, 1012.181
583.405, 933.511
584.721, 875.229
586.036, 775.923
587.351, 683.735
588.665, 615.838
589.980, 564.370
591.294, 569.122
592.608, 475.137
593.922, 456.164
595.236, 381.752
596.549, 355.626
597.862, 270.896
599.175, 257.583
600.488, 234.133
601.801, 192.095
603.113, 149.080
604.425, 120.573
605.737, 100.791
607.049, 47.201
608.361, 87.344
609.672, 90.588
610.983, 86.008
612.294, 60.690
613.605, 33.350
614.915, 1.152
616.225, 25.853
617.536, 49.669
618.845, 6.104
620.155, 27.233
621.464, 29.217
622.774, 25.657
624.083, 23.652
625.391, 30.508
626.700, 24.713
628.008, 12.414
629.317, 19.144
630.625, 16.227
631.932, 20.670
633.240, 40.692
634.547, 40.208
635.854, 37.820
637.161, 48.386
638.468, 17.994
639.774, 9.622
641.081, 37.261
642.387, 60.854
643.693, 63.981
644.998, 83.691
646.304, 103.652
647.609, 56.813
648.914, 102.118
650.219, 103.589
651.523, 134.777
652.828, 113.745
654.132, 116.233
655.436, 78.132
656.740, 96.176
658.043, 104.239
659.346, 142.871
660.650, 145.690
661.952, 180.823
663.255, 203.932
664.558, 234.593
665.860, 266.341
667.162, 278.072
668.464, 332.786
669.766, 373.483
671.067, 456.163
672.368, 477.826
673.669, 503.473
674.970, 597.104
676.271, 644.718
677.571, 679.316
678.871, 585.899
680.171, 581.465
681.471, 464.017
682.771, 370.553
684.070, 365.074
685.369, 234.580
686.668, 220.071
687.967, 235.547
689.266, 185.009
690.564, 132.456
691.862, 112.889
693.160, 99.224
694.458, 80.003
695.755, 92.102
697.053, 84.477
698.350, 52.839
699.646, 88.185
700.943, 71.517
702.240, 22.835
703.536, 93.138
704.832, 61.427
706.128, 42.703
707.423, 57.965
708.719, 46.212
710.014, 44.446
711.309, 44.666
712.604, 54.872
713.898, 48.144
715.193, 71.244
716.487, 48.412
717.781, 27.567
719.075, 40.709
720.368, 69.843
721.662, 35.967
722.955, 24.083
724.248, 20.189
725.541, 7.715
726.833, 76.365
728.125, 26.438
729.418, 47.504
730.709, 39.565
732.001, 2.620
733.293, 59.666
734.584, 53.709
735.875, 43.750
737.166, 93.789
738.457, 17.836
739.747, 3.882
741.037, 59.921
742.327, 21.963
743.617, 46.005
744.907, 40.060
746.196, 66.114
747.486, 79.177
748.775, 96.257
750.063, 147.337
751.352, 128.425
752.640, 201.513
753.929, 231.614
755.217, 288.729
756.504, 292.856
757.792, 274.985
759.079, 210.029
760.367, 163.959
761.654, 146.814
762.940, 87.449
764.227, 79.261
765.513, 40.093
766.799, 25.911
768.085, 40.627
769.371, 10.234
770.657, 42.704
771.942, 31.713
773.227, 7.052
774.512, 0.420
775.797, 17.019
777.081, 8.461
778.365, 35.925
779.650, 17.421
780.933, 7.933
782.217, 35.068
783.501, 41.014
784.784, 58.354
786.067, 21.673
787.350, 12.707
788.633, 14.209
789.915, 23.285
791.197, 55.800
792.479, 102.304
793.761, 40.006
795.043, 85.764
796.324, 14.464
797.606, 22.072
798.887, 35.678
800.167, 17.221
801.448, 21.689
802.728, 43.364
804.009, 28.875
805.289, 24.395
806.568, 1.205
807.848, 12.280
809.128, 5.005
810.407, 3.390
811.686, 15.056
812.965, 60.541
814.243, 53.194
815.522, 27.136
816.800, 23.523
818.078, 8.818
819.355, 38.837
820.633, 90.493
821.910, 75.148
823.188, 90.805
824.465, 64.463
825.741, 120.121
827.018, 131.781
828.294, 164.441
829.570, 200.103
830.846, 243.767
832.122, 237.432
833.398, 317.099
834.673, 314.767
835.948, 405.438
837.223, 393.110
838.498, 474.785
839.772, 615.462
841.047, 644.141
842.321, 724.824
843.595, 822.508
844.868, 869.196
846.142, 1089.886
847.415, 1133.531
848.688, 1263.104
849.961, 1324.738
851.234, 1500.349
852.507, 1565.837
853.779, 1733.482
855.051, 1945.068
856.323, 1975.460
857.595, 2129.156
858.866, 2314.730
860.137, 2484.235
861.409, 2639.816
862.679, 2935.358
863.950, 3132.908
865.221, 3095.470
866.491, 3265.085
867.761, 3244.690
869.031, 3199.411
870.301, 2987.058
871.570, 2769.636
872.839, 2515.289
874.109, 2328.190
875.377, 2140.753
876.646, 1923.387
877.915, 1778.017
879.183, 1563.811
880.451, 1446.698
881.719, 1287.402
882.987, 1224.223
884.254, 1160.023
885.521, 1094.464
886.788, 1061.375
888.055, 955.286
889.322, 936.178
890.588, 849.169
891.855, 825.989
893.121, 758.621
894.387, 737.647
895.652, 732.532
896.918, 709.534
898.183, 677.527
899.448, 605.587
900.713, 632.655
901.978, 633.729
903.242, 566.819
904.506, 641.916
905.771, 563.025
907.034, 558.151
908.298, 607.286
909.562, 549.432
910.825, 520.589
912.088, 588.753
913.351, 550.927
914.613, 555.110
915.876, 598.304
917.138, 548.510
918.400, 620.724
919.662, 521.916
920.924, 495.149
922.185, 541.304
923.447, 565.557
924.708, 598.760
925.969, 573.327
927.229, 623.289
928.490, 614.361
929.750, 649.915
931.010, 664.978
932.270, 701.091
933.530, 720.732
934.789, 689.916
936.048, 782.272
937.308, 923.169
938.566, 920.212
939.825, 985.615
941.084, 1091.028
942.342, 1148.085
943.600, 1373.321
944.858, 1513.721
946.116, 1734.944
947.373, 1986.449
948.630, 2269.117
949.888, 2536.409
951.144, 2542.990
952.401, 2705.600
953.658, 2633.002
954.914, 2443.250
956.170, 2419.324
957.426, 2289.674
958.682, 2298.237
959.937, 2437.269
961.193, 2356.882
962.448, 2392.342
963.703, 2370.981
964.957, 2410.632
966.212, 2515.294
967.466, 2478.744
968.720, 2495.429
969.974, 2610.795
971.228, 2674.505
972.482, 2731.230
973.735, 2725.966
974.988, 2502.714
976.241, 2302.472
977.494, 1870.242
978.746, 1675.023
979.999, 1414.815
981.251, 1291.619
982.503, 1220.434
983.755, 1115.261
985.006, 1028.098
986.258, 923.947
987.509, 950.808
988.760, 842.680
990.011, 780.575
991.261, 794.418
992.512, 789.821
993.762, 767.823
995.012, 676.170
996.262, 674.487
997.511, 645.104
998.761, 682.070
1000.010, 699.047
1001.259, 680.036
1002.508, 643.036
1003.756, 685.049
1005.005, 688.073
1006.253, 678.109
1007.501, 684.159
1008.749, 680.224
1009.996, 733.372
1011.244, 737.461
1012.491, 749.660
1013.738, 810.701
1014.985, 785.829
1016.232, 799.968
1017.478, 823.618
1018.724, 848.870
1019.970, 907.045
1021.216, 874.848
1022.462, 942.777
1023.707, 935.109
1024.953, 978.137
1026.198, 1014.090
1027.443, 1119.332
1028.687, 1171.691
1029.932, 1196.964
1031.176, 1397.674
1032.420, 1504.842
1033.664, 1658.204
1034.908, 1894.815
1036.152, 2055.139
1037.395, 2350.435
1038.638, 2662.083
1039.881, 2913.973
1041.124, 3375.208
1042.366, 3642.044
1043.609, 3464.319
1044.851, 3217.750
1046.093, 2555.631
1047.335, 2082.797
1048.576, 1672.239
1049.818, 1443.694
1051.059, 1276.132
1052.300, 1134.458
1053.541, 1060.910
1054.781, 954.534
1056.022, 869.832
1057.262, 866.067
1058.502, 742.486
1059.742, 717.675
1060.981, 715.224
1062.221, 632.951
1063.460, 689.853
1064.699, 646.304
1065.938, 660.825
1067.177, 623.383
1068.415, 526.071
1069.653, 515.608
1070.891, 571.150
1072.129, 535.716
1073.367, 586.270
1074.604, 482.951
1075.842, 513.582
1077.079, 505.167
1078.316, 480.844
1079.553, 485.486
1080.789, 505.307
1082.025, 493.998
1083.262, 495.778
1084.498, 493.432
1085.733, 481.192
1086.969, 470.897
1088.204, 458.587
1089.439, 428.351
1090.674, 446.105
1091.909, 409.114
1093.144, 447.793
1094.378, 356.991
1095.612, 415.885
1096.846, 374.764
1098.080, 410.571
1099.314, 390.386
1100.547, 355.215
1101.781, 350.408
1103.014, 339.253
1104.247, 337.937
1105.479, 335.546
1106.712, 345.916
1107.944, 334.796
1109.176, 327.538
1110.408, 326.187
1111.640, 342.633
1112.871, 327.607
1114.102, 355.504
1115.334, 366.462
1116.565, 369.295
1117.795, 393.531
1119.026, 379.046
1120.256, 384.708
1121.486, 376.625
1122.716, 394.552
1123.946, 362.471
1125.176, 369.391
1126.405, 364.322
1127.634, 341.273
1128.863, 373.273
1130.092, 367.197
1131.321, 403.183
1132.549, 378.108
1133.778, 373.882
1135.006, 319.095
1136.233, 334.055
1137.461, 311.981
1138.689, 282.976
1139.916, 292.902
1141.143, 241.999
1142.370, 182.947
1143.597, 176.158
1144.823, 120.540
1146.050, 141.556
1147.276, 68.479
1148.502, 110.428
1149.727, 103.354
1150.953, 9.279
1152.178, 78.435
1153.404, 23.502
1154.629, 3.535
1155.853, 14.582
1157.078, 3.500
1158.302, 37.649
1159.527, 4.364
1160.751, 22.454
1161.975, 15.242
1163.198, 22.225
1164.422, 30.820
1165.645, 39.774
1166.868, 37.913
1168.091, 31.158
1169.314, 32.558
1170.536, 38.364
1171.759, 16.509
1172.981, 14.688
1174.203, 13.152
1175.424, 36.312
1176.646, 5.085
1177.867, 8.012
1179.089, 63.268
1180.310, 0.476
1181.530, 4.802
1182.751, 7.966
1183.971, 47.227
1185.192, 36.396
1186.412, 23.134
1187.632, 12.179
1188.851, 5.062
1190.071, 27.740
1191.290, 3.897
1192.509, 4.485
1193.728, 8.696
1194.947, 9.907
1196.165, 9.517
1197.384, 43.087
1198.602, 25.414
1199.820, 36.133
1201.037, 13.395
1202.255, 28.746
1203.472, 1.315
1204.690, 8.894
1205.907, 4.841
1207.124, 10.021
1208.340, 3.485
1209.557, 0.865
1210.773, 12.233
1211.989, 6.407
1213.205, 18.939
1214.421, 7.278
1215.636, 43.609
1216.851, 28.934
1218.067, 25.259
1219.281, 54.591
1220.496, 11.896
1221.711, 19.232
1222.925, 41.566
1224.139, 15.852
1225.353, 25.127
1226.567, 10.397
1227.781, 13.657
1228.994, 20.933
1230.207, 47.178
1231.421, 17.416
1232.633, 31.897
1233.846, 59.933
1235.059, 23.566
1236.271, 27.771
1237.483, 11.076
1238.695, 1.741
1239.907, 7.850
1241.118, 20.598
1242.330, 24.751
1243.541, 46.896
1244.752, 61.029
1245.963, 93.154
1247.173, 12.271
1248.384, 74.379
1249.594, 3.479
1250.804, 15.567
1252.014, 51.638
1253.223, 54.702
1254.433, 39.757
1255.642, 27.804
1256.851, 46.842
1258.060, 32.786
1259.269, 61.900
1260.478, 38.937
1261.686, 22.938
1262.894, 45.927
1264.102, 9.920
1265.310, 6.884
1266.518, 74.836
1267.725, 53.776
1268.932, 89.732
1270.139, 61.668
1271.346, 55.571
1272.553, 51.504
1273.759, 40.381
1274.966, 83.246
1276.172, 45.095
1277.378, 75.933
1278.583, 49.820
1279.789, 39.628
1280.994, 53.446
1282.200, 74.232
1283.405, 46.007
1284.609, 78.759
1285.814, 33.498
1287.018, 58.225
1288.223, 26.940
1289.427, 19.643
1290.631, 42.334
1291.834, 132.013
1293.038, 58.682
1294.241, 67.485
1295.444, 87.481
1296.647, 33.119
1297.850, 39.769
1299.053, 43.388
1300.255, 4.995
1301.457, 69.587
1302.659, 34.097
1303.861, 51.668
1305.063, 116.131
1306.264, 11.754
1307.466, 48.291
1308.667, 54.813
1309.868, 37.826
1311.068, 65.237
1312.269, 5.726
1313.469, 51.588
1314.669, 35.324
1315.869, 41.659
1317.069, 46.309
1318.269, 39.024
1319.468, 4.450
1320.668, 5.759
1321.867, 27.159
1323.066, 51.122
1324.264, 29.626
1325.463, 55.935
1326.661, 30.996
1327.859, 26.367
1329.057, 19.743
1330.255, 15.234
1331.452, 7.547
1332.650, 11.983
1333.847, 39.889
1335.044, 24.288
1336.241, 27.530
1337.438, 10.323
1338.634, 24.808
1339.830, 23.016
1341.027, 30.211
1342.222, 46.422
1343.418, 27.744
1344.614, 52.938
1345.809, 11.959
1347.004, 42.085
1348.199, 48.810
1349.394, 16.033
1350.589, 61.485
1351.783, 21.575
1352.978, 39.487
1354.172, 58.221
1355.365, 89.289
1356.559, 79.048
1357.753, 89.844
1358.946, 53.532
1360.139, 67.625
1361.332, 37.710
1362.525, 34.397
1363.718, 41.847
1364.910, 29.800
1366.102, 28.807
1367.294, 38.862
1368.486, 58.878
1369.678, 38.887
1370.869, 66.745
1372.061, 34.206
1373.252, 85.180
1374.443, 48.217
1375.634, 65.148
1376.824, 24.071
1378.015, 1.010
1379.205, 39.794
1380.395, 16.581
1381.585, 67.701
1382.775, 47.484
1383.964, 36.729
1385.153, 53.040
1386.343, 64.960
1387.531, 74.116
1388.720, 79.361
1389.909, 59.426
1391.097, 65.686
1392.285, 56.650
1393.473, 62.143
1394.661, 57.679
1395.849, 68.263
1397.037, 65.387
1398.224, 55.421
1399.411, 38.390
1400.598, 34.357
1401.785, 57.217
1402.971, 30.174
1404.158, 78.071
1405.344, 40.796
1406.530, 31.822
1407.716, 42.616
1408.901, 59.465
1410.087, 72.026
1411.272, 28.530
1412.457, 27.880
1413.642, 61.251
1414.827, 20.953
1416.012, 95.485
1417.196, 76.986
1418.380, 70.423
1419.564, 47.909
1420.748, 15.490
1421.932, 87.213
1423.115, 22.670
1424.299, 107.291
1425.482, 75.697
1426.665, 41.747
1427.847, 60.594
1429.030, 74.195
1430.212, 54.465
1431.395, 84.962
1432.577, 43.629
1433.759, 88.300
1434.940, 88.784
1436.122, 18.595
1437.303, 5.908
1438.484, 82.899
1439.665, 17.711
1440.846, 22.521
1442.026, 44.309
1443.207, 101.062
1444.387, 89.688
1445.567, 53.451
1446.747, 30.205
1447.927, 39.903
1449.106, 76.633
1450.286, 53.396
1451.465, 64.877
1452.644, 52.580
1453.822, 63.246
1455.001, 91.923
1456.179, 61.589
1457.358, 84.236
1458.536, 17.881
1459.714, 54.521
1460.891, 41.142
1462.069, 79.724
1463.246, 99.249
1464.423, 91.562
1465.600, 62.380
1466.777, 68.892
1467.954, 60.440
1469.130, 13.944
1470.306, 112.587
1471.483, 65.079
1472.658, 61.723
1473.834, 39.434
1475.010, 4.228
1476.185, 51.043
1477.360, 55.874
1478.535, 27.713
1479.710, 67.537
1480.885, 55.163
1482.059, 89.849
1483.234, 68.534
1484.408, 16.213
1485.582, 39.886
1486.755, 42.590
1487.929, 0.704
1489.102, 49.999
1490.275, 33.653
1491.449, 51.356
1492.621, 78.064
1493.794, 51.781
1494.967, 17.510
1496.139, 16.128
1497.311, 32.873
1498.483, 17.178
1499.655, 21.988
1500.826, 23.829
1501.998, 21.703
1503.169, 27.728
1504.340, 37.792
1505.511, 44.049
1506.682, 35.465
1507.852, 42.974
1509.023, 9.502
1510.193, 36.826
1511.363, 17.289
1512.532, 4.146
1513.702, 84.601
1514.872, 68.608
1516.041, 52.634
1517.210, 29.323
1518.379, 27.974
1519.548, 37.603
1520.716, 0.000
##END=



