##NAMES=Annite
##RRUFFID=R060204
##IDEAL CHEMISTRY=KFe^2+^_3_AlSi_3_O_10_(OH)_2_
##LOCALITY=Mont Saint-Hilaire, Rouville County, Quebec, Canada
##OWNER=RRUFF
##SOURCE=Royal Ontario Museum
##DESCRIPTION=Black mica with pseudohexagonal outines
##STATUS=The identification of this mineral has been confirmed by X-ray diffraction and chemical analysis
##URL=rruff.info/R060204
##MEASURED CHEMISTRY=(K_0.96_Na_0.04_)_Σ=1_(Fe^2+^_2.04_Mg_0.81_Mn_0.09_Ti_0.03_[box]_0.03_)_Σ=3_(Si_3.00_Al_1.00_)O_10_((OH)_1.54_F_0.46_)_Σ=2_
##PIN_ID=M00078
##ORIENTATION=Laser parallel to a* (1 0 0). Fiducial mark perpendicular to laser is parallel to -b [0 -1 0]
307.1510, 0.0000000E+00
308.3580, 82.18359
309.5660, 19.35938
310.7730, 2.546875
311.9800, 38.53906
313.1870, 53.93555
314.3940, 179.2773
315.6010, 136.7461
316.8070, 185.7070
318.0130, 66.08008
319.2200, 90.99805
320.4260, 1.101563
321.6310, 225.9277
322.8370, 17.95898
324.0430, 216.5693
325.2480, 283.3164
326.4540, 145.6396
327.6590, 108.2656
328.8640, 26.98926
330.0680, 216.9219
331.2730, 6.282227
332.4780, 379.2168
333.6820, 232.5732
334.8860, 427.4023
336.0900, 115.3164
337.2940, 117.6113
338.4980, 51.09766
339.7010, 10.66309
340.9050, 99.39062
342.1080, 171.8477
343.3110, 208.3906
344.5140, 113.1807
345.7170, 191.3262
346.9200, 133.2275
348.1220, 328.7383
349.3240, 231.2461
350.5270, 422.7666
351.7290, 399.3008
352.9310, 460.9150
354.1320, 195.6855
355.3340, 276.6777
356.5350, 252.9473
357.7370, 370.6543
358.9380, 394.2285
360.1390, 340.9727
361.3400, 355.7422
362.5400, 239.4854
363.7410, 347.1885
364.9410, 405.8682
366.1410, 146.2197
367.3410, 299.7598
368.5410, 285.1309
369.7410, 364.8135
370.9400, 219.9844
372.1400, 236.6953
373.3390, 253.5459
374.5380, 151.8281
375.7370, 233.6445
376.9360, 329.7119
378.1350, 355.2295
379.3330, 369.2969
380.5310, 289.0479
381.7300, 538.9404
382.9280, 367.6553
384.1260, 366.3926
385.3230, 684.0146
386.5210, 525.8867
387.7180, 786.9131
388.9160, 604.1475
390.1130, 581.6455
391.3100, 775.9131
392.5060, 634.7061
393.7030, 705.6016
394.9000, 757.3184
396.0960, 646.0762
397.2920, 696.8828
398.4880, 693.7256
399.6840, 705.6016
400.8800, 706.3564
402.0750, 695.6865
403.2710, 639.3828
404.4660, 652.3486
405.6610, 525.3291
406.8560, 455.3213
408.0510, 426.3223
409.2450, 382.3213
410.4400, 439.3232
411.6340, 379.3213
412.8280, 445.3008
414.0220, 501.2588
415.2160, 468.1865
416.4100, 440.2891
417.6030, 346.0576
418.7970, 328.7373
419.9900, 135.5156
421.1830, 151.2637
422.3760, 162.9814
423.5690, 99.67090
424.7610, 297.3340
425.9540, 448.9717
427.1460, 288.3271
428.3380, 345.1836
429.5300, 34.76074
430.7220, 156.3193
431.9140, 90.86230
433.1050, 54.39355
434.2970, 109.9150
435.4880, 41.58691
436.6790, 28.12305
437.8700, 88.69336
439.0610, 28.26660
440.2510, 5.861328
441.4420, 26.48926
442.6320, 130.8467
443.8220, 9.910156
445.0120, 61.80566
446.2020, 64.78418
447.3910, 230.7461
448.5810, 186.5947
449.7700, 0.2402340
450.9600, 171.7861
452.1490, 101.8242
453.3370, 95.34570
454.5260, 99.39355
455.7150, 53.02051
456.9030, 106.7070
458.0910, 181.5352
459.2800, 146.5098
460.4670, 89.39160
461.6550, 163.1992
462.8430, 154.9521
464.0300, 107.2559
465.2180, 41.82227
466.4050, 185.0947
467.5920, 39.47461
468.7790, 191.7803
469.9650, 163.0020
471.1520, 56.14258
472.3380, 187.9346
473.5250, 283.9189
474.7110, 197.3555
475.8970, 173.1934
477.0820, 231.9600
478.2680, 197.6543
479.4540, 334.2539
480.6390, 408.7637
481.8240, 527.9160
483.0090, 575.6719
484.1940, 608.1758
485.3780, 522.0449
486.5630, 671.1895
487.7470, 527.0000
488.9320, 635.9316
490.1160, 826.5391
491.3000, 750.3047
492.4830, 761.9922
493.6670, 669.6074
494.8500, 802.1543
496.0340, 895.6387
497.2170, 972.8965
498.4000, 836.2637
499.5820, 901.5742
500.7650, 851.8320
501.9480, 887.0332
503.1300, 890.1855
504.3120, 937.2930
505.4940, 972.2480
506.6760, 994.3945
507.8580, 1021.174
509.0390, 1005.492
510.2210, 1152.322
511.4020, 1068.082
512.5830, 1019.783
513.7640, 1123.115
514.9450, 1038.873
516.1250, 1184.223
517.3060, 1003.459
518.4860, 1042.061
519.6660, 1043.820
520.8460, 993.1621
522.0260, 1001.307
523.2060, 899.8418
524.3850, 1094.084
525.5650, 998.4023
526.7440, 1191.551
527.9230, 911.4922
529.1020, 1040.316
530.2810, 996.2344
531.4590, 1015.164
532.6380, 1106.082
533.8160, 944.0039
534.9940, 817.9238
536.1720, 1014.842
537.3500, 986.7715
538.5270, 903.7070
539.7050, 875.6504
540.8820, 849.6133
542.0590, 822.1641
543.2360, 830.6270
544.4130, 811.7266
545.5900, 773.8516
546.7660, 779.0527
547.9430, 907.3125
549.1190, 875.4531
550.2950, 864.5625
551.4710, 677.5586
552.6470, 747.8242
553.8220, 850.8926
554.9980, 885.2832
556.1730, 952.7969
557.3480, 652.3164
558.5230, 924.7969
559.6980, 1268.906
560.8730, 958.0117
562.0470, 765.8574
563.2220, 800.9961
564.3960, 748.2988
565.5700, 699.8750
566.7440, 720.1484
567.9170, 654.8887
569.0910, 713.1543
570.2640, 606.6816
571.4380, 566.2461
572.6110, 610.9102
573.7840, 465.9414
574.9570, 666.4199
576.1290, 513.8223
577.3020, 417.6973
578.4740, 269.5352
579.6460, 251.9766
580.8180, 273.0332
581.9900, 269.3984
583.1620, 305.8242
584.3330, 365.7148
585.5040, 128.4141
586.6760, 374.9727
587.8470, 170.4609
589.0180, 325.6543
590.1880, 338.7344
591.3590, 242.6562
592.5290, 541.8320
593.7000, 367.4316
594.8700, 375.4688
596.0400, 289.2988
597.2090, 462.0742
598.3790, 433.5117
599.5490, 430.2910
600.7180, 481.3066
601.8870, 600.0762
603.0560, 649.3477
604.2250, 791.5742
605.3940, 861.3613
606.5620, 927.7852
607.7300, 1000.121
608.8990, 1089.398
610.0670, 1099.752
611.2350, 1280.980
612.4020, 1422.471
613.5700, 2141.793
614.7370, 1962.145
615.9050, 2122.871
617.0720, 1813.123
618.2390, 2086.617
619.4060, 1804.963
620.5720, 2221.883
621.7390, 2057.875
622.9050, 2334.859
624.0710, 2076.844
625.2370, 2637.820
626.4030, 2225.791
627.5690, 2408.758
628.7340, 2616.717
629.9000, 2617.676
631.0650, 2775.627
632.2300, 2751.578
633.3950, 2786.521
634.5600, 2790.461
635.7240, 3026.396
636.8890, 2905.330
638.0530, 3224.260
639.2170, 3118.186
640.3810, 3401.107
641.5450, 3188.027
642.7080, 3487.943
643.8720, 3531.859
645.0350, 3458.768
646.1980, 3597.680
647.3610, 3743.586
648.5240, 4216.490
649.6870, 4108.395
650.8490, 4530.293
652.0120, 5078.195
653.1740, 5266.094
654.3360, 5356.992
655.4980, 5450.891
656.6600, 5828.791
657.8210, 5998.695
658.9830, 6649.600
660.1440, 6983.508
661.3050, 7796.422
662.4660, 7965.336
663.6270, 8719.262
664.7870, 9354.188
665.9480, 10038.48
667.1080, 10622.98
668.2680, 11309.02
669.4280, 12210.59
670.5880, 12741.71
671.7480, 13347.08
672.9070, 13978.58
674.0670, 14306.90
675.2260, 15062.16
676.3850, 15240.95
677.5440, 15325.42
678.7030, 15925.23
679.8610, 15055.14
681.0200, 15240.09
682.1780, 14673.75
683.3360, 14420.59
684.4940, 13871.69
685.6520, 13569.97
686.8090, 12680.47
687.9670, 12269.38
689.1240, 11439.36
690.2810, 10716.01
691.4380, 10066.01
692.5950, 9426.557
693.7520, 8615.055
694.9080, 7941.592
696.0650, 7586.402
697.2210, 6929.623
698.3770, 6550.021
699.5330, 5930.371
700.6880, 5704.293
701.8440, 5305.412
702.9990, 4883.562
704.1550, 4728.113
705.3100, 4408.480
706.4650, 4076.115
707.6190, 3871.926
708.7740, 3800.695
709.9290, 3589.758
711.0830, 3359.941
712.2370, 3359.438
713.3910, 3019.271
714.5450, 3175.885
715.6980, 2830.549
716.8520, 2793.246
718.0050, 2779.062
719.1580, 2457.355
720.3110, 2614.332
721.4640, 2507.002
722.6170, 2383.523
723.7700, 2405.143
724.9220, 2155.781
726.0740, 2258.355
727.2260, 2058.965
728.3780, 1903.451
729.5300, 1768.396
730.6810, 1661.102
731.8330, 1636.322
732.9840, 1525.477
734.1350, 1540.059
735.2860, 1531.783
736.4370, 1485.990
737.5880, 1467.055
738.7380, 1411.939
739.8880, 1370.807
741.0390, 1280.104
742.1890, 1199.455
743.3380, 1100.719
744.4880, 1114.971
745.6380, 1122.213
746.7870, 1097.029
747.9360, 1159.689
749.0850, 1112.887
750.2340, 1147.139
751.3830, 1170.309
752.5310, 1222.463
753.6800, 1194.412
754.8280, 1258.721
755.9760, 1149.826
757.1240, 1100.912
758.2720, 1098.980
759.4190, 1242.031
760.5670, 952.0605
761.7140, 1164.070
762.8610, 1164.062
764.0080, 1135.031
765.1550, 1018.982
766.3020, 1073.912
767.4480, 1068.820
768.5950, 1146.713
769.7410, 1224.582
770.8870, 1011.432
772.0330, 851.2617
773.1780, 1121.072
774.3240, 887.8594
775.4690, 948.6270
776.6140, 843.3730
777.7590, 838.0977
778.9040, 831.8027
780.0490, 883.4902
781.1940, 782.1543
782.3380, 807.7988
783.4820, 609.4219
784.6260, 613.0254
785.7700, 487.6035
786.9140, 482.1836
788.0580, 447.7031
789.2010, 527.2207
790.3450, 437.7168
791.4880, 492.1934
792.6310, 564.6484
793.7730, 285.0801
794.9160, 278.5918
796.0590, 445.8848
797.2010, 315.2520
798.3430, 277.6016
799.4850, 294.6543
800.6270, 245.2266
801.7690, 231.5078
802.9100, 133.7656
804.0520, 86.00000
805.1930, 198.2051
806.3340, 72.38867
807.4750, 45.45703
808.6160, 125.6367
809.7560, 93.70312
810.8970, 140.7422
812.0370, 154.8867
813.1770, 29.74609
814.3170, 108.7051
815.4570, 26.75586
816.5960, 21.52148
817.7360, 5.611328
818.8750, 159.8027
820.0140, 194.1230
821.1530, 38.58789
822.2920, 248.1133
823.4310, 171.8125
824.5690, 18.64453
825.7070, 258.5273
826.8460, 157.5898
827.9840, 19.77734
829.1220, 92.01758
830.2590, 75.35156
831.3970, 91.23242
832.5340, 25.79102
833.6710, 150.6816
834.8080, 5.720703
835.9450, 152.9141
837.0820, 50.66992
838.2190, 149.4980
839.3550, 70.44531
840.4910, 75.52734
841.6270, 10.52930
842.7630, 126.6309
843.8990, 113.8438
845.0350, 17.84375
846.1700, 150.5020
847.3060, 88.96875
848.4410, 46.52344
849.5760, 100.1465
850.7100, 39.14062
851.8450, 23.39844
852.9800, 19.16602
854.1140, 69.17773
855.2480, 2.943359
856.3820, 8.025391
857.5160, 33.07031
858.6500, 70.08789
859.7830, 8.921875
860.9170, 2.3437999E-02
862.0500, 54.93164
863.1830, 4.189453
864.3160, 91.64844
865.4480, 56.53906
866.5810, 222.2051
867.7130, 23.92578
868.8460, 253.6152
869.9780, 93.28516
871.1100, 62.92773
872.2410, 240.5430
873.3730, 212.1367
874.5050, 250.0957
875.6360, 236.2500
876.7670, 218.7715
877.8980, 297.2695
879.0290, 162.7441
880.1590, 247.1953
881.2900, 330.6230
882.4200, 243.0293
883.5500, 164.4121
884.6800, 254.7695
885.8100, 153.1035
886.9400, 241.4160
888.0690, 276.6562
889.1990, 305.0957
890.3280, 315.2207
891.4570, 486.4453
892.5860, 345.6562
893.7140, 530.8438
894.8430, 364.0078
895.9710, 403.1523
897.1000, 472.2871
898.2280, 585.4180
899.3560, 436.5273
900.4830, 619.6113
901.6110, 517.6816
902.7380, 411.7324
903.8660, 485.7637
904.9930, 541.8066
906.1200, 764.8320
907.2460, 737.8359
908.3730, 805.5977
909.5000, 610.7988
910.6260, 780.7539
911.7520, 741.6934
912.8780, 623.6094
914.0040, 749.5059
915.1290, 719.4004
916.2550, 755.3086
917.3800, 858.2441
918.5050, 849.1621
919.6300, 917.0605
920.7550, 992.9395
921.8800, 791.8008
923.0040, 792.6426
924.1290, 1093.475
925.2530, 943.3047
926.3770, 1396.115
927.5010, 1215.928
928.6250, 1144.684
929.7480, 1012.439
930.8720, 1198.180
931.9950, 1161.902
933.1180, 1107.607
934.2410, 1138.297
935.3640, 1120.967
936.4860, 1414.623
937.6090, 1173.271
938.7310, 1341.545
939.8530, 1240.619
940.9750, 1240.695
942.0970, 1357.125
943.2180, 1348.607
944.3400, 1345.832
945.4610, 1572.906
946.5820, 1490.160
947.7030, 1574.477
948.8240, 1430.252
949.9450, 1602.342
951.0650, 1585.082
952.1860, 1902.729
953.3060, 2128.330
954.4260, 1616.209
955.5460, 1771.896
956.6650, 1740.309
957.7850, 1667.572
958.9040, 1772.602
960.0230, 1753.219
961.1420, 1812.758
962.2610, 1639.631
963.3800, 1704.141
964.4990, 1647.102
965.6170, 1752.117
966.7350, 1737.102
967.8530, 2040.834
968.9710, 1952.156
970.0890, 2071.305
971.2070, 1936.508
972.3240, 1938.127
973.4410, 2113.551
974.5580, 2053.945
975.6750, 2167.932
976.7920, 2087.102
977.9090, 2205.992
979.0250, 2305.699
980.1410, 2320.436
981.2580, 2403.875
982.3740, 2292.195
983.4890, 2571.203
984.6050, 2683.867
985.7200, 2791.756
986.8360, 2590.586
987.9510, 2814.406
989.0660, 2849.119
990.1810, 2903.391
991.2950, 3164.018
992.4100, 2950.959
993.5240, 3571.068
994.6390, 3667.738
995.7530, 3577.012
996.8660, 3508.094
997.9800, 3898.164
999.0940, 3764.422
1000.207, 4057.277
1001.320, 4210.996
1002.433, 4244.010
1003.546, 4466.742
1004.659, 4903.074
1005.772, 4985.293
1006.884, 5082.047
1007.996, 5546.811
1009.108, 5561.576
1010.220, 6143.355
1011.332, 6124.141
1012.444, 6516.930
1013.555, 6701.664
1014.666, 7096.471
1015.777, 7207.287
1016.888, 7481.109
1017.999, 7559.906
1019.110, 7803.744
1020.220, 7953.521
1021.331, 8126.377
1022.441, 7911.242
1023.551, 7931.115
1024.661, 7982.998
1025.770, 7778.137
1026.880, 7727.039
1027.989, 7631.945
1029.098, 7463.863
1030.207, 7275.582
1031.316, 7504.838
1032.425, 6911.783
1033.533, 6869.797
1034.642, 7039.270
1035.750, 6376.242
1036.858, 6036.969
1037.966, 5757.508
1039.073, 5806.402
1040.181, 5864.961
1041.288, 5849.090
1042.396, 5761.166
1043.503, 5389.805
1044.610, 5384.881
1045.716, 5232.812
1046.823, 5074.607
1047.929, 5125.264
1049.036, 4801.445
1050.142, 4855.934
1051.248, 4750.105
1052.353, 4712.812
1053.459, 4527.260
1054.564, 4562.020
1055.670, 4303.152
1056.775, 4106.854
1057.880, 4244.998
1058.985, 4066.158
1060.089, 4326.330
1061.194, 4350.508
1062.298, 4144.699
1063.402, 3987.895
1064.506, 3882.102
1065.610, 3945.316
1066.713, 3693.543
1067.817, 3791.885
1068.920, 3813.184
1070.023, 3530.637
1071.126, 3667.035
1072.229, 3718.193
1073.332, 3511.803
1074.435, 3525.096
1075.537, 3737.789
1076.639, 3497.125
1077.741, 3510.482
1078.843, 3227.838
1079.945, 3134.252
1081.046, 3228.125
1082.148, 3140.514
1083.249, 3094.809
1084.350, 3205.090
1085.451, 3385.826
1086.551, 3171.277
1087.652, 2937.107
1088.752, 2576.867
1089.853, 2555.824
1090.953, 2377.516
1092.053, 2416.955
1093.152, 2140.732
1094.252, 2061.723
1095.351, 1961.641
1096.451, 1851.582
1097.550, 1793.467
1098.649, 1648.930
1099.748, 1671.283
1100.846, 1525.365
1101.945, 1643.941
1103.043, 1617.840
1104.141, 1384.160
1105.239, 1438.705
1106.337, 1353.145
1107.434, 1047.516
1108.532, 1194.760
1109.629, 1266.738
1110.726, 1267.783
1111.823, 984.2891
1112.920, 1068.549
1114.017, 1005.141
1115.113, 936.1152
1116.210, 1071.707
1117.306, 829.5527
1118.402, 962.0586
1119.498, 944.9570
1120.593, 996.3066
1121.689, 899.6445
1122.784, 854.2129
1123.879, 951.4277
1124.974, 966.5781
1126.069, 852.7656
1127.164, 910.0859
1128.259, 662.8789
1129.353, 681.5762
1130.447, 814.9980
1131.541, 709.0566
1132.635, 767.6055
1133.729, 763.4355
1134.822, 474.1445
1135.916, 680.8086
1137.009, 673.3281
1138.102, 445.0996
1139.195, 634.7832
1140.288, 436.9316
1141.380, 377.4180
1142.473, 422.0000
1143.565, 358.0723
1144.657, 465.2480
1145.749, 407.5840
1146.841, 335.2012
1147.932, 327.1055
1149.024, 136.8809
1150.115, 284.5352
1151.206, 201.3867
1152.297, 232.9727
1153.388, 290.5586
1154.479, 149.1445
1155.569, 218.4297
1156.659, 39.17188
1157.750, 183.4258
1158.839, 264.2031
1159.929, 59.98438
1161.019, 66.23633
1162.108, 74.48438
1163.198, 50.23828
1164.287, 82.96094
1165.376, 17.31836
1166.465, 23.39453
1167.553, 20.88477
1168.642, 121.1348
1169.730, 26.97070
1170.818, 348.1641
1171.906, 18.19531
1172.994, 207.4375
1174.082, 23.93359
1175.170, 82.68164
1176.257, 35.69531
1177.344, 49.92773
1178.431, 68.43945
1179.518, 121.8418
1180.605, 179.2969
1181.691, 86.15234
1182.778, 52.61133
1183.864, 182.0664
1184.950, 114.0195
1186.036, 167.0078
1187.122, 25.51953
1188.207, 49.06641
1189.292, 68.35352
1190.378, 81.77148
1191.463, 120.1836
1192.548, 92.38281
1193.632, 140.5625
1194.717, 119.6816
1195.801, 176.8203
1196.886, 104.2207
1197.970, 48.61719
1199.054, 64.00977
1200.137, 27.59570
1201.221, 47.76953
1202.305, 52.86914
1203.388, 8.457031
1204.471, 109.7754
1205.554, 201.9141
1206.637, 160.2793
1207.719, 87.46289
1208.802, 129.6582
1209.884, 50.15625
1210.966, 8.996094
1212.048, 167.1328
1213.130, 13.73242
1214.212, 28.62305
1215.293, 29.45312
1216.374, 216.5273
1217.456, 28.59180
1218.536, 63.64844
1219.617, 128.3066
1220.698, 147.6523
1221.778, 12.34375
1222.859, 343.5391
1223.939, 42.53320
1225.019, 125.3457
1226.099, 128.2227
1227.178, 52.91406
1228.258, 29.10352
1229.337, 90.33398
1230.417, 5.640625
1231.496, 27.97852
1232.574, 16.39648
1233.653, 89.22656
1234.732, 7.798828
1235.810, 83.34961
1236.888, 103.8887
1237.966, 141.4121
1239.044, 173.9277
1240.122, 77.54688
1241.199, 79.03125
1242.277, 33.50195
1243.354, 126.9570
1244.431, 40.39844
1245.508, 146.8223
1246.585, 187.2305
1247.661, 116.6270
1248.738, 253.0059
1249.814, 185.3750
1250.890, 109.7285
1251.966, 51.93555
1253.042, 147.3379
1254.117, 263.5957
1255.193, 212.8359
1256.268, 15.74414
1257.343, 192.1699
1258.418, 293.2988
1259.493, 323.1816
1260.567, 68.45898
1261.642, 181.1973
1262.716, 146.6387
1263.790, 106.0312
1264.864, 270.4277
1265.938, 57.00586
1267.011, 218.0957
1268.085, 229.6680
1269.158, 309.6328
1270.231, 241.4102
1271.304, 218.9414
1272.377, 344.6758
1273.450, 388.5566
1274.522, 303.2266
1275.594, 387.4277
1276.666, 168.6211
1277.738, 215.7988
1278.810, 377.5488
1279.882, 299.5508
1280.953, 386.3555
1282.025, 410.3711
1283.096, 149.0469
1284.167, 383.8828
1285.238, 404.7852
1286.308, 203.4102
1287.379, 421.5449
1288.449, 251.7461
1289.519, 220.6914
1290.589, 290.4883
1291.659, 251.5156
1292.729, 386.6504
1293.798, 357.1074
1294.868, 312.2402
1295.937, 334.1191
1297.006, 171.4629
1298.075, 340.6133
1299.143, 284.4180
1300.212, 343.7969
1301.280, 428.5508
1302.348, 314.7637
1303.416, 410.7031
1304.484, 180.8008
1305.552, 229.3730
1306.620, 244.2070
1307.687, 429.7539
1308.754, 197.1914
1309.821, 223.0859
1310.888, 373.4004
1311.955, 364.6973
1313.021, 426.2578
1314.088, 288.1035
1315.154, 334.3555
1316.220, 327.1914
1317.286, 492.9746
1318.352, 524.0430
1319.417, 389.2246
1320.483, 255.0430
1321.548, 436.7500
1322.613, 320.3594
1323.678, 364.0977
1324.743, 240.8711
1325.807, 261.5098
1326.872, 279.7480
1327.936, 373.5254
1329.000, 239.7207
1330.064, 492.2559
1331.128, 383.1934
1332.191, 552.3887
1333.255, 489.7500
1334.318, 738.0527
1335.381, 402.1562
1336.444, 653.8750
1337.507, 584.7207
1338.569, 531.4512
1339.632, 421.7715
1340.694, 437.0488
1341.756, 399.9414
1342.818, 323.5664
1343.880, 322.2090
1344.941, 292.9570
1346.003, 631.3750
1347.064, 502.9180
1348.125, 569.7988
1349.186, 504.5059
1350.247, 481.6777
1351.308, 500.7090
1352.368, 487.2344
1353.428, 497.6777
1354.489, 482.0898
1355.549, 516.1777
1356.608, 425.3418
1357.668, 421.6152
1358.727, 373.8125
1359.787, 529.2539
1360.846, 368.0273
1361.905, 505.4199
1362.964, 551.0703
1364.022, 419.4043
1365.081, 302.8066
1366.139, 507.3105
1367.197, 115.7969
1368.255, 404.0352
1369.313, 162.2617
1370.371, 615.7383
1371.428, 559.2422
1372.486, 479.2324
1373.543, 364.6230
1374.600, 458.0020
1375.657, 195.2656
1376.713, 418.0723
1377.770, 520.3730
1378.826, 464.4902
1379.882, 383.1367
1380.938, 456.9316
1381.994, 318.4707
1383.050, 503.6133
1384.106, 412.2031
1385.161, 396.3164
1386.216, 430.4023
1387.271, 396.4785
1388.326, 404.1621
1389.381, 389.1914
1390.435, 195.3867
1391.490, 412.1582
1392.544, 420.1055
1393.598, 256.5859
1394.652, 364.4824
1395.705, 218.0020
1396.759, 224.7793
1397.812, 216.6836
1398.866, 230.4961
1399.919, 86.62891
1400.972, 133.3926
1402.024, 306.1914
1403.077, 327.1562
1404.129, 113.8672
1405.181, 216.1816
1406.233, 142.8418
1407.285, 244.4844
1408.337, 210.1094
1409.389, 179.7090
1410.440, 184.1758
1411.491, 14.73438
1412.542, 161.2578
1413.593, 57.77344
1414.644, 175.2656
1415.695, 40.92969
1416.745, 176.3906
1417.795, 74.83984
1418.845, 188.2852
1419.895, 95.71094
1420.945, 104.1152
1421.995, 18.04492
1423.044, 36.68555
1424.093, 88.59961
1425.142, 89.15430
1426.191, 162.4746
1427.240, 106.8320
1428.289, 223.3242
1429.337, 213.5801
1430.385, 309.9277
1431.433, 64.84375
1432.481, 9.337891
1433.529, 46.49805
1434.577, 32.85938
1435.624, 6.078125
1436.672, 14.80273
1437.719, 53.46094
1438.766, 61.44141
1439.812, 135.6094
1440.859, 6.248047
1441.905, 205.5508
1442.952, 189.2812
1443.998, 277.5156
1445.044, 95.38477
1446.090, 109.7734
1447.135, 33.21484
1448.181, 8.853516
1449.226, 72.04688
1450.271, 195.9258
1451.316, 225.7754
1452.361, 218.2207
1453.405, 12.54102
1454.450, 139.3926
1455.494, 25.27539
1456.538, 2.162109
1457.582, 44.03906
1458.626, 46.92188
1459.670, 129.7793
1460.713, 87.66406
1461.757, 30.42383
1462.800, 368.4883
1463.843, 15.60352
1464.886, 157.3535
1465.928, 37.39844
1466.971, 267.4961
1468.013, 13.59375
1469.055, 2.708984
1470.097, 169.7559
1471.139, 267.0840
1472.181, 293.1582
1473.222, 34.64453
1474.263, 143.5840
1475.305, 105.2656
1476.346, 60.91211
1477.386, 221.5898
1478.427, 4.492188
1479.468, 161.9395
1480.508, 169.8652
1481.548, 246.2070
1482.588, 174.3809
1483.628, 148.3281
1484.668, 270.4766
1485.707, 310.5508
1486.747, 207.2129
1487.786, 3.718750
1488.825, 283.1641
1489.864, 260.2266
1490.902, 237.2988
1491.941, 331.3359
1492.979, 261.8516
1494.017, 410.2480
1495.055, 43.86914
1496.093, 130.6387
1497.131, 156.9395
1498.168, 310.8535
1499.206, 169.5254
1500.243, 344.3320
1501.280, 56.40039
1502.317, 231.1621
1503.354, 355.9219
1504.390, 322.7363
1505.426, 212.7168
1506.463, 152.6758
1507.499, 202.2891
1508.535, 254.5312
1509.570, 255.9453
1510.606, 217.8984
1511.641, 202.1621
1512.676, 164.2480
1513.711, 195.5801
1514.746, 78.15820
1515.781, 274.5020
1516.816, 240.7480
1517.850, 287.3574
1518.884, 192.2266
1519.918, 9.992188
1520.952, 180.3555
1521.986, 278.2441
1523.019, 303.4375
1524.053, 43.93945
1525.086, 150.6523
1526.119, 112.4863
1527.152, 68.19531
1528.185, 228.8105
1529.217, 11.52148
1530.250, 164.2578
1531.282, 171.6523
1532.314, 247.3711
1533.346, 173.0410
1534.377, 145.7031
1535.409, 266.8848
1536.440, 304.2168
1537.472, 214.3574
1538.503, 294.3086
1539.534, 71.36719
1540.564, 114.1621
1541.595, 271.6875
1542.625, 189.4453
1543.656, 270.9941
1544.686, 291.0020
1545.716, 22.59570
1546.745, 253.4141
1547.775, 267.8359
1548.804, 63.41211
1549.834, 275.7363
1550.863, 98.06836
1551.892, 62.36719
1552.920, 130.8242
1553.949, 90.82617
1554.977, 221.9688
1556.006, 186.6562
1557.034, 138.0586
1558.062, 153.7402
1559.089, 17.31641
1560.117, 151.5098
1561.144, 91.11328
1562.172, 143.2422
1563.199, 222.2305
1564.226, 103.4336
1565.252, 146.7676
1566.279, 593.2734
1567.305, 1.775391
1568.332, 9.460938
1569.358, 10.16797
1570.384, 0.0000000E+00
##END=



