##NAMES=Axinite-(Fe)
##RRUFFID=R040074
##IDEAL CHEMISTRY=Ca_4_Fe^2+^_2_Al_4_[B_2_Si_8_O_30_](OH)_2_
##LOCALITY=Luning, Nevada, USA
##OWNER=RRUFF
##SOURCE=University of Arizona Mineral Museum
##DESCRIPTION=Pale brown wedge-shaped crystal
##STATUS=The identification of this mineral has been confirmed by X-ray diffraction and chemical analysis
##URL=rruff.info/R040074
##MEASURED CHEMISTRY=(Ca_0.98_Mn_0.01_)_2_(Fe_0.41_Mg_0.39_Mn_0.20_)Al_1.95_B_1.20_Si_3.90_O_15_(OH)
##PIN_ID=M00153
##ORIENTATION=Laser parallel to (1 0 1). Fiducial mark perpendicular to laser is parallel to b [0 1 0]
91.081, 0.000
92.477, 55.982
93.873, 25.065
95.268, 85.439
96.663, 176.854
98.058, 507.066
99.453, 700.696
100.848, 930.790
102.242, 1631.665
103.636, 3212.807
105.030, 5619.342
106.423, 9015.518
107.817, 12506.271
109.210, 15748.692
110.603, 16961.133
111.996, 15952.598
113.388, 14472.517
114.780, 12518.347
116.172, 10471.375
117.564, 8730.646
118.956, 7044.133
120.347, 5647.162
121.738, 4451.084
123.129, 3410.776
124.519, 2628.968
125.910, 1969.775
127.300, 1598.287
128.690, 1352.332
130.080, 1242.320
131.469, 1528.652
132.858, 1861.703
134.248, 2921.818
135.636, 4369.324
137.025, 6681.614
138.413, 9580.499
139.801, 12746.387
141.189, 15454.042
142.577, 17452.986
143.964, 17695.082
145.352, 16882.613
146.739, 15630.197
148.125, 13781.812
149.512, 11914.004
150.898, 10446.734
152.284, 8639.956
153.670, 7293.658
155.056, 5947.842
156.441, 4982.465
157.827, 4077.425
159.212, 3742.616
160.596, 3438.826
161.981, 3691.553
163.365, 4012.395
164.749, 4490.035
166.133, 5467.077
167.517, 6704.827
168.900, 8012.016
170.283, 8539.276
171.666, 8876.606
173.049, 8284.005
174.431, 7391.546
175.813, 6359.480
177.195, 4867.844
178.577, 3516.650
179.959, 2345.894
181.340, 1384.914
182.721, 536.608
184.102, 41.969
185.483, 363.205
186.863, 674.127
188.244, 794.769
189.624, 665.166
191.003, 512.344
192.383, 341.329
193.762, 256.139
195.141, 96.795
196.520, 23.715
197.899, 173.464
199.277, 466.737
200.656, 729.534
202.034, 1405.715
203.411, 1970.139
204.789, 2894.578
206.166, 3848.962
207.543, 5133.266
208.920, 6247.490
210.297, 7651.639
211.673, 8635.716
213.049, 9059.820
214.425, 9424.326
215.801, 9329.269
217.176, 8614.428
218.552, 7609.562
219.927, 6664.578
221.302, 5438.993
222.676, 4472.071
224.051, 3373.816
225.425, 2594.663
226.799, 1964.970
228.173, 1565.201
229.546, 1069.047
230.919, 785.934
232.292, 799.487
233.665, 722.446
235.038, 1118.163
236.410, 1066.404
237.782, 1191.580
239.154, 1222.736
240.526, 1244.320
241.898, 1267.907
243.269, 1043.496
244.640, 1316.064
246.011, 1517.608
247.381, 2037.146
248.752, 2726.680
250.122, 4096.207
251.492, 5295.729
252.861, 6815.245
254.231, 8084.755
255.600, 8894.261
256.969, 9595.201
258.338, 10125.863
259.707, 10697.006
261.075, 11389.487
262.443, 12712.367
263.811, 14425.505
265.179, 16228.786
266.546, 18692.127
267.914, 21005.471
269.281, 23548.770
270.647, 25011.955
272.014, 26604.975
273.380, 27617.805
274.747, 27150.438
276.113, 26152.869
277.478, 24205.096
278.844, 22007.129
280.209, 18928.938
281.574, 16490.365
282.939, 14491.342
284.304, 13211.883
285.668, 12462.043
287.032, 12251.852
288.396, 12161.343
289.760, 12490.545
291.123, 12589.480
292.487, 13148.166
293.850, 13676.622
295.212, 14154.862
296.575, 14512.901
297.937, 14380.759
299.300, 14239.227
300.662, 13388.592
302.023, 12628.801
303.385, 11463.707
304.746, 10547.399
306.107, 9583.420
307.468, 8805.761
308.829, 8376.246
310.189, 8174.818
311.549, 8609.466
312.909, 9374.235
314.269, 10891.223
315.629, 12575.224
316.988, 14698.137
318.347, 16400.236
319.706, 17191.590
321.065, 17372.480
322.423, 15883.384
323.781, 14054.296
325.139, 12185.215
326.497, 10476.110
327.855, 9276.993
329.212, 8587.872
330.569, 7959.428
331.926, 7662.548
333.283, 7614.002
334.639, 7606.670
335.995, 7722.904
337.351, 8644.992
338.707, 10066.017
340.063, 12179.086
341.418, 14366.397
342.773, 16548.836
344.128, 17850.020
345.483, 17780.832
346.837, 16126.833
348.192, 14404.906
349.546, 11833.036
350.899, 9791.866
352.253, 7903.329
353.606, 6663.120
354.960, 5362.694
356.313, 4223.186
357.665, 3209.201
359.018, 2357.389
360.370, 1781.290
361.722, 1202.418
363.074, 830.224
364.426, 566.929
365.777, 381.542
367.128, 233.523
368.479, 105.825
369.830, 78.151
371.181, 5.999
372.531, 22.502
373.881, 8.937
375.231, 49.583
376.581, 83.416
377.930, 61.363
379.280, 134.255
380.629, 342.094
381.977, 627.886
383.326, 937.638
384.674, 1599.353
386.023, 2193.038
387.370, 2924.698
388.718, 3294.338
390.066, 3563.960
391.413, 3233.563
392.760, 2872.795
394.107, 2394.811
395.454, 1928.810
396.800, 1710.388
398.146, 1606.529
399.492, 1687.417
400.838, 1729.589
402.184, 1892.745
403.529, 2029.882
404.874, 2098.003
406.219, 2168.816
407.564, 2296.902
408.908, 2596.970
410.252, 3227.021
411.596, 4326.054
412.940, 5775.069
414.284, 7854.066
415.627, 9773.044
416.970, 11252.002
418.313, 11720.943
419.656, 11509.825
420.999, 11268.643
422.341, 11047.396
423.683, 11636.078
425.025, 11944.688
426.367, 12623.226
427.708, 12981.687
429.049, 13540.071
430.390, 13978.377
431.731, 13956.607
433.072, 13104.755
434.412, 11812.830
435.752, 10400.829
437.092, 8808.753
438.432, 8066.601
439.772, 8154.377
441.111, 8952.569
442.450, 10421.000
443.789, 11760.125
445.127, 12199.332
446.466, 11498.436
447.804, 9857.291
449.142, 7615.815
450.480, 5673.838
451.817, 4061.381
453.155, 2892.474
454.492, 2100.503
455.829, 1442.473
457.166, 1056.380
458.502, 776.229
459.838, 478.017
461.175, 221.739
462.510, 26.387
463.846, 98.048
465.181, 270.620
466.517, 334.404
467.852, 293.420
469.186, 273.624
470.521, 246.986
471.855, 185.492
473.190, 188.089
474.523, 64.757
475.857, 0.889
477.191, 131.606
478.524, 325.365
479.857, 504.861
481.190, 955.446
482.523, 1308.097
483.855, 1727.825
485.187, 1693.486
486.519, 1903.457
487.851, 1389.372
489.183, 883.320
490.514, 435.301
491.845, 58.285
493.176, 144.757
494.507, 323.929
495.837, 381.326
497.168, 315.980
498.498, 299.857
499.828, 173.947
501.157, 83.185
502.487, 189.477
503.816, 484.091
505.145, 949.667
506.474, 1461.207
507.802, 2175.734
509.131, 2880.326
510.459, 3375.067
511.787, 3628.041
513.115, 3593.279
514.442, 3333.756
515.770, 2875.421
517.097, 2408.240
518.424, 1772.179
519.750, 1324.195
521.077, 1079.254
522.403, 610.328
523.729, 443.269
525.055, 259.093
526.381, 160.106
527.706, 71.274
529.031, 51.285
530.356, 150.930
531.681, 215.159
533.006, 446.372
534.330, 418.586
535.654, 655.154
536.978, 773.832
538.302, 1063.234
539.625, 1174.410
540.949, 1311.922
542.272, 1482.607
543.595, 1784.059
544.917, 1970.476
546.240, 1871.858
547.562, 1864.206
548.884, 1642.520
550.206, 1493.798
551.527, 1497.042
552.849, 1684.253
554.170, 1885.435
555.491, 2530.589
556.812, 2988.717
558.132, 3916.811
559.453, 4421.871
560.773, 4596.899
562.093, 4311.893
563.412, 3596.852
564.732, 2838.776
566.051, 2184.668
567.370, 1636.526
568.689, 1371.349
570.008, 1065.137
571.326, 1095.890
572.644, 982.608
573.963, 1117.292
575.280, 1163.940
576.598, 1053.554
577.915, 1149.132
579.233, 1167.675
580.550, 1273.184
581.866, 1541.657
583.183, 1860.095
584.499, 2119.499
585.815, 2706.868
587.131, 3017.202
588.447, 3239.503
589.763, 3152.770
591.078, 2872.002
592.393, 2313.201
593.708, 1754.367
595.022, 1322.739
596.337, 826.838
597.651, 537.329
598.965, 338.554
600.279, 263.550
601.593, 79.647
602.906, 41.558
604.219, 50.422
605.532, 91.240
606.845, 155.013
608.158, 257.744
609.470, 356.436
610.782, 473.093
612.094, 564.718
613.406, 790.312
614.718, 980.876
616.029, 1272.409
617.340, 1594.911
618.651, 1957.594
619.962, 1964.185
621.272, 2063.677
622.582, 1742.840
623.892, 1434.091
625.202, 1140.059
626.512, 806.069
627.821, 729.778
629.131, 630.418
630.440, 609.201
631.749, 680.299
633.057, 910.159
634.366, 1296.131
635.674, 1738.579
636.982, 2408.371
638.290, 3159.374
639.597, 4120.133
640.905, 4797.965
642.212, 5549.531
643.519, 5927.268
644.825, 5911.637
646.132, 5649.011
647.438, 5016.486
648.744, 4157.621
650.050, 3430.029
651.356, 2774.149
652.662, 2044.544
653.967, 1659.798
655.272, 1098.157
656.577, 1005.539
657.882, 819.837
659.186, 659.850
660.490, 651.685
661.794, 659.731
663.098, 829.099
664.402, 843.434
665.705, 1028.736
667.009, 1345.155
668.312, 1738.102
669.614, 2363.312
670.917, 3047.540
672.219, 3888.700
673.522, 5185.689
674.824, 5908.625
676.125, 6721.974
677.427, 6704.674
678.728, 6357.534
680.030, 5540.026
681.331, 4691.934
682.631, 3880.588
683.932, 3184.799
685.232, 2674.617
686.532, 2320.335
687.832, 2043.457
689.132, 1990.857
690.432, 1827.245
691.731, 1972.519
693.030, 1985.200
694.329, 2344.858
695.628, 2562.495
696.926, 2944.106
698.224, 3509.687
699.522, 4325.232
700.820, 5196.735
702.118, 6728.201
703.415, 8329.626
704.713, 10621.015
706.010, 13562.359
707.307, 17093.676
708.603, 22774.938
709.900, 28876.170
711.196, 35327.355
712.492, 41428.516
713.788, 44999.625
715.083, 46290.711
716.379, 41621.742
717.674, 37422.746
718.969, 30563.711
720.264, 24564.637
721.558, 19435.525
722.853, 15436.378
724.147, 12097.192
725.441, 9727.968
726.735, 7818.711
728.028, 6429.416
729.322, 5230.084
730.615, 4460.716
731.908, 3616.312
733.201, 3098.874
734.493, 2670.399
735.785, 2169.889
737.078, 1956.343
738.370, 1709.761
739.661, 1314.145
740.953, 1214.493
742.244, 1056.808
743.535, 915.086
744.826, 897.331
746.117, 680.542
747.407, 635.718
748.698, 590.860
749.988, 403.970
751.278, 534.042
752.567, 358.082
753.857, 413.084
755.146, 464.561
756.435, 423.694
757.724, 491.028
759.013, 470.173
760.301, 548.327
761.590, 663.622
762.878, 813.156
764.165, 915.092
765.453, 1021.413
766.741, 1104.089
768.028, 1165.736
769.315, 1126.350
770.602, 1073.934
771.888, 881.486
773.175, 716.009
774.461, 550.504
775.747, 467.976
777.033, 316.431
778.319, 100.894
779.604, 34.402
780.889, 41.041
782.174, 95.486
783.459, 98.966
784.744, 166.490
786.028, 253.111
787.312, 236.873
788.596, 318.801
789.880, 388.951
791.164, 302.369
792.447, 390.013
793.730, 299.930
795.013, 334.075
796.296, 235.465
797.579, 335.050
798.861, 282.879
800.143, 172.926
801.425, 176.131
802.707, 87.496
803.989, 22.970
805.270, 167.489
806.551, 276.961
807.832, 617.500
809.113, 978.123
810.394, 1203.814
811.674, 1386.571
812.954, 1571.358
814.234, 1349.152
815.514, 1308.928
816.794, 1035.681
818.073, 829.408
819.352, 563.112
820.631, 339.791
821.910, 203.445
823.189, 129.068
824.467, 11.660
825.745, 118.203
827.023, 5.287
828.301, 148.168
829.578, 36.592
830.856, 179.982
832.133, 129.345
833.410, 204.677
834.687, 238.985
835.963, 373.270
837.240, 388.539
838.516, 518.794
839.792, 625.037
841.068, 670.269
842.343, 764.490
843.618, 854.698
844.894, 1092.891
846.169, 1265.072
847.443, 1475.232
848.718, 1762.372
849.992, 1822.492
851.266, 2111.595
852.540, 2207.681
853.814, 2317.754
855.088, 2334.831
856.361, 2272.893
857.634, 2334.943
858.907, 2305.749
860.180, 2469.001
861.453, 2317.009
862.725, 2319.003
863.997, 2372.991
865.269, 2300.994
866.541, 2196.998
867.812, 2178.001
869.084, 2186.032
870.355, 2184.056
871.626, 2143.080
872.897, 2288.097
874.167, 2263.133
875.438, 2312.159
876.708, 2285.193
877.978, 2346.216
879.248, 2468.253
880.517, 2403.279
881.787, 2530.309
883.056, 2397.354
884.325, 2673.388
885.594, 2570.419
886.862, 2677.440
888.130, 2713.456
889.399, 2980.471
890.667, 3362.477
891.934, 3607.473
893.202, 3893.466
894.469, 4349.459
895.737, 4785.460
897.004, 5311.470
898.270, 5467.490
899.537, 6013.504
900.803, 6169.518
902.070, 5745.525
903.336, 5951.286
904.601, 5397.278
905.867, 4802.860
907.132, 4338.666
908.398, 3924.671
909.663, 3479.544
910.928, 3108.558
912.192, 2821.580
913.457, 2557.492
914.721, 2392.627
915.985, 2252.654
917.249, 2210.677
918.512, 2252.697
919.776, 2250.710
921.039, 2408.716
922.302, 2413.717
923.565, 2724.712
924.827, 2913.699
926.090, 3305.685
927.352, 3694.663
928.614, 4110.636
929.876, 4526.088
931.138, 4510.637
932.399, 4654.487
933.660, 4653.894
934.922, 4349.872
936.182, 4265.634
937.443, 3927.147
938.704, 3933.217
939.964, 3940.303
941.224, 3672.250
942.484, 4089.806
943.744, 4172.815
945.003, 4570.348
946.262, 5123.571
947.521, 5464.692
948.780, 6392.047
950.039, 6713.209
951.298, 7527.705
952.556, 8389.170
953.814, 8640.505
955.072, 9227.479
956.330, 10148.593
957.587, 10673.640
958.845, 12109.166
960.102, 13295.242
961.359, 14761.330
962.615, 15907.430
963.872, 16823.537
965.128, 17219.654
966.384, 16875.775
967.640, 16421.916
968.896, 15978.059
970.152, 16094.211
971.407, 16690.375
972.662, 17946.389
973.917, 19221.857
975.172, 21647.033
976.427, 23771.164
977.681, 25256.338
978.935, 26509.652
980.189, 25204.988
981.443, 24240.178
982.697, 21415.881
983.950, 19181.305
985.203, 16767.459
986.456, 14593.389
987.709, 13249.750
988.962, 11926.315
990.214, 10982.853
991.467, 10459.435
992.719, 9906.285
993.971, 9683.184
995.222, 9540.282
996.474, 9417.987
997.725, 9434.338
998.976, 9650.692
1000.227, 9887.057
1001.478, 10074.016
1002.728, 9521.311
1003.978, 9149.113
1005.229, 8570.449
1006.479, 7647.815
1007.728, 6945.721
1008.978, 6053.180
1010.227, 5180.320
1011.476, 4528.042
1012.725, 3955.288
1013.974, 3343.974
1015.223, 2952.162
1016.471, 2415.579
1017.719, 2342.929
1018.967, 1989.556
1020.215, 1765.599
1021.462, 1587.507
1022.710, 1465.758
1023.957, 1496.503
1025.204, 1255.058
1026.451, 1236.894
1027.697, 1221.536
1028.944, 1043.886
1030.190, 1026.565
1031.436, 1005.770
1032.682, 1019.312
1033.928, 902.826
1035.173, 938.832
1036.418, 877.472
1037.663, 974.672
1038.908, 979.419
1040.153, 1239.914
1041.398, 1171.558
1042.642, 1319.333
1043.886, 1318.753
1045.130, 1194.387
1046.374, 1028.212
1047.617, 1164.383
1048.860, 923.204
1050.104, 1083.715
1051.347, 1145.513
1052.589, 1239.275
1053.832, 1131.001
1055.074, 1034.399
1056.316, 1195.732
1057.558, 1122.117
1058.800, 1230.450
1060.042, 1309.908
1061.283, 1335.445
1062.524, 1288.440
1063.765, 1138.866
1065.006, 1079.207
1066.247, 1081.686
1067.487, 931.483
1068.728, 935.094
1069.968, 1139.347
1071.208, 975.979
1072.447, 1212.635
1073.687, 1278.102
1074.926, 1536.154
1076.165, 1825.394
1077.404, 2204.723
1078.643, 2645.655
1079.881, 3215.977
1081.120, 3504.440
1082.358, 3912.036
1083.596, 4099.555
1084.834, 3989.267
1086.071, 3676.688
1087.309, 3243.687
1088.546, 2652.480
1089.783, 2301.176
1091.020, 1891.149
1092.256, 1602.361
1093.493, 1305.230
1094.729, 1203.497
1095.965, 1125.711
1097.201, 1039.734
1098.436, 932.031
1099.672, 860.626
1100.907, 773.026
1102.142, 719.270
1103.377, 760.312
1104.612, 744.277
1105.846, 838.787
1107.081, 723.970
1108.315, 712.316
1109.549, 569.512
1110.782, 567.997
1112.016, 632.237
1113.249, 400.414
1114.483, 447.302
1115.716, 374.391
1116.948, 282.616
1118.181, 422.587
1119.413, 228.565
1120.646, 207.505
1121.878, 310.730
1123.110, 135.539
1124.341, 245.572
1125.573, 166.543
1126.804, 139.115
1128.035, 126.152
1129.266, 20.902
1130.497, 50.433
1131.727, 73.388
1132.957, 3.184
1134.188, 79.245
1135.418, 89.634
1136.647, 46.056
1137.877, 58.156
1139.106, 52.959
1140.335, 1.318
1141.564, 0.648
1142.793, 11.332
1144.022, 32.767
1145.250, 964.389
1146.479, 414.975
1147.707, 1245.876
1148.934, 9.402
1150.162, 12.442
1151.390, 28.173
1152.617, 103.178
1153.844, 10.361
1155.071, 26.730
1156.298, 11.022
1157.524, 22.473
1158.751, 16.807
1159.977, 10.638
1161.203, 39.091
1162.428, 136.076
1163.654, 70.490
1164.879, 67.982
1166.105, 169.506
1167.330, 14.938
1168.555, 71.372
1169.779, 17.964
1171.004, 128.906
1172.228, 17.090
1173.452, 79.494
1174.676, 7.743
1175.900, 100.932
1177.123, 5.890
1178.346, 47.238
1179.570, 99.509
1180.793, 61.345
1182.015, 22.142
1183.238, 35.299
1184.460, 4.130
1185.683, 32.707
1186.905, 77.935
1188.126, 44.583
1189.348, 12.321
1190.569, 23.065
1191.791, 57.275
1193.012, 43.376
1194.233, 63.794
1195.453, 12.070
1196.674, 19.422
1197.894, 19.575
1199.114, 28.457
1200.334, 37.462
1201.554, 61.419
1202.774, 132.811
1203.993, 27.372
1205.212, 25.682
1206.431, 103.562
1207.650, 11.281
1208.869, 38.877
1210.087, 45.832
1211.305, 11.548
1212.524, 99.083
1213.741, 27.952
1214.959, 66.624
1216.177, 149.861
1217.394, 59.241
1218.611, 51.749
1219.828, 94.502
1221.045, 25.873
1222.261, 144.640
1223.478, 120.482
1224.694, 38.527
1225.910, 118.003
1227.126, 20.655
1228.342, 55.520
1229.557, 74.899
1230.772, 1.665
1231.987, 117.229
1233.202, 230.078
1234.417, 70.815
1235.631, 106.547
1236.846, 70.501
1238.060, 54.873
1239.274, 246.858
1240.488, 50.473
1241.701, 96.104
1242.915, 163.230
1244.128, 67.883
1245.341, 183.226
1246.554, 95.505
1247.767, 179.720
1248.979, 238.142
1250.191, 2.222
1251.403, 132.371
1252.615, 205.244
1253.827, 56.877
1255.039, 194.914
1256.250, 119.916
1257.461, 174.109
1258.672, 182.989
1259.883, 246.236
1261.094, 194.250
1262.304, 154.427
1263.514, 218.088
1264.724, 209.470
1265.934, 211.645
1267.144, 136.895
1268.354, 230.878
1269.563, 170.518
1270.772, 180.227
1271.981, 268.759
1273.190, 152.817
1274.398, 214.396
1275.607, 258.848
1276.815, 150.527
1278.023, 265.845
1279.231, 255.131
1280.439, 256.118
1281.646, 237.569
1282.853, 180.848
1284.060, 248.109
1285.267, 220.344
1286.474, 113.322
1287.681, 206.865
1288.887, 82.649
1290.093, 216.752
1291.299, 294.590
1292.505, 121.996
1293.711, 133.364
1294.916, 171.239
1296.121, 52.910
1297.327, 176.989
1298.531, 32.910
1299.736, 35.853
1300.941, 187.133
1302.145, 21.463
1303.349, 59.002
1304.553, 136.457
1305.757, 37.854
1306.961, 116.363
1308.164, 21.826
1309.367, 131.493
1310.570, 124.089
1311.773, 56.782
1312.976, 51.235
1314.178, 95.006
1315.381, 6.901
1316.583, 103.130
1317.785, 37.063
1318.987, 73.156
1320.188, 143.534
1321.390, 80.820
1322.591, 11.626
1323.792, 192.677
1324.993, 23.638
1326.193, 188.304
1327.394, 181.649
1328.594, 57.692
1329.794, 145.179
1330.994, 104.834
1332.194, 96.595
1333.394, 154.270
1334.593, 118.817
1335.792, 176.214
1336.991, 197.743
1338.190, 110.436
1339.389, 97.631
1340.587, 130.030
1341.786, 24.574
1342.984, 221.671
1344.182, 169.701
1345.379, 128.546
1346.577, 94.941
1347.774, 46.988
1348.972, 131.684
1350.169, 206.646
1351.365, 60.941
1352.562, 174.005
1353.759, 198.697
1354.955, 0.746
1356.151, 248.006
1357.347, 45.464
1358.543, 165.432
1359.738, 244.415
1360.934, 55.729
1362.129, 130.339
1363.324, 284.758
1364.519, 121.190
1365.713, 228.866
1366.908, 185.333
1368.102, 127.384
1369.296, 194.712
1370.490, 140.198
1371.684, 92.968
1372.877, 148.429
1374.071, 22.498
1375.264, 84.242
1376.457, 187.532
1377.650, 38.302
1378.843, 160.968
1380.035, 102.592
1381.227, 52.729
1382.419, 260.895
1383.611, 108.010
1384.803, 95.428
1385.995, 162.913
1387.186, 20.764
1388.377, 94.065
1389.568, 90.119
1390.759, 86.719
1391.950, 213.241
1393.140, 139.878
1394.331, 125.904
1395.521, 271.857
1396.711, 27.295
1397.900, 52.392
1399.090, 167.568
1400.279, 32.742
1401.469, 147.390
1402.658, 82.273
1403.847, 26.461
1405.035, 240.650
1406.224, 46.481
1407.412, 135.415
1408.600, 158.314
1409.788, 120.463
1410.976, 40.060
1412.164, 184.931
1413.351, 132.366
1414.538, 141.000
1415.725, 217.894
1416.912, 84.239
1418.099, 204.424
1419.285, 141.943
1420.472, 205.805
1421.658, 382.145
1422.844, 41.206
1424.030, 347.429
1425.215, 274.569
1426.401, 52.910
1427.586, 221.884
1428.771, 190.590
1429.956, 79.568
1431.141, 338.567
1432.325, 106.880
1433.510, 223.560
1434.694, 332.201
1435.878, 58.463
1437.062, 217.262
1438.245, 154.562
1439.429, 138.664
1440.612, 255.667
1441.795, 214.354
1442.978, 30.437
1444.161, 308.715
1445.343, 57.009
1446.526, 124.506
1447.708, 220.997
1448.890, 65.257
1450.072, 151.738
1451.253, 239.160
1452.435, 33.519
1453.616, 280.223
1454.797, 145.470
1455.978, 16.901
1457.159, 320.203
1458.340, 105.337
1459.520, 140.451
1460.700, 249.236
1461.880, 169.863
1463.060, 271.490
1464.240, 241.457
1465.420, 10.318
1466.599, 115.151
1467.778, 149.955
1468.957, 70.567
1470.136, 281.086
1471.315, 152.637
1472.493, 216.386
1473.671, 307.270
1474.849, 127.983
1476.027, 89.923
1477.205, 371.062
1478.383, 51.370
1479.560, 321.354
1480.737, 231.625
1481.914, 7.886
1483.091, 219.191
1484.268, 157.634
1485.444, 136.146
1486.621, 332.078
1487.797, 48.594
1488.973, 107.416
1490.149, 292.615
1491.324, 38.141
1492.500, 246.638
1493.675, 276.104
1494.850, 189.176
1496.025, 280.023
1497.200, 244.279
1498.374, 212.284
1499.548, 247.460
1500.723, 221.735
1501.897, 70.247
1503.071, 240.522
1504.244, 157.096
1505.418, 190.868
1506.591, 266.393
1507.764, 49.335
1508.937, 305.430
1510.110, 71.556
1511.282, 2.730
1512.455, 401.030
1513.627, 96.905
1514.799, 132.995
1515.971, 216.178
1517.143, 0.999
1518.314, 141.664
1519.486, 201.839
1520.657, 0.146
1521.828, 0.000
##END=



