##NAMES=Bertrandite
##RRUFFID=R060800
##IDEAL CHEMISTRY=Be_4_Si_2_O_7_(OH)_2_
##LOCALITY=Golconda mine, Governador Valadares, Minas Gerais, Brazil
##OWNER=RRUFF
##SOURCE=Bob Jenkins
##DESCRIPTION=Colorless pseudohexagonal prisms
##STATUS=The identification of this mineral is confirmed by single-crystal X-ray diffraction and chemical analysis.
##URL=rruff.info/R060800
##MEASURED CHEMISTRY=Be_4.00_Si_2.00_O_7_(OH)_2_
##PIN_ID=M00406
##ORIENTATION=Laser parallel to b* (0 1 0). Fiducial mark perpendicular to laser is parallel to c [0 0 1]
123.0580, 0.0000000E+00
124.2880, 21.18652
125.5190, 100.1807
126.7490, 82.05420
127.9790, 6.309082
129.2090, 130.3438
130.4390, 145.5981
131.6680, 43.83398
132.8980, 5.755859
134.1270, 96.12891
135.3560, 39.76270
136.5850, 18.24854
137.8140, 31.90039
139.0430, 60.43115
140.2710, 50.74805
141.5000, 75.18848
142.7280, 65.61816
143.9560, 89.71533
145.1840, 63.51660
146.4120, 35.80518
147.6390, 70.53857
148.8670, 9.310547
150.0940, 31.22754
151.3210, 38.12695
152.5490, 25.36377
153.7750, 37.06689
155.0020, 48.76758
156.2290, 42.89844
157.4550, 56.29248
158.6810, 99.93750
159.9080, 118.8188
161.1340, 172.9175
162.3590, 198.2705
163.5850, 170.8276
164.8110, 211.5479
166.0360, 310.4209
167.2610, 407.4380
168.4860, 443.5928
169.7110, 826.8799
170.9360, 1172.293
172.1610, 1562.876
173.3850, 2233.634
174.6100, 2939.509
175.8340, 3727.507
177.0580, 5334.629
178.2820, 7923.873
179.5050, 11864.23
180.7290, 16658.70
181.9520, 18275.28
183.1760, 14946.96
184.3990, 10489.73
185.6220, 7995.606
186.8450, 6704.571
188.0670, 5551.627
189.2900, 4845.771
190.5120, 4649.001
191.7340, 5274.313
192.9560, 7128.707
194.1780, 9873.177
195.4000, 13518.72
196.6220, 16775.33
197.8430, 20105.92
199.0640, 25860.50
200.2860, 36041.76
201.5070, 49836.32
202.7270, 58583.66
203.9480, 50283.29
205.1690, 34145.93
206.3890, 24054.59
207.6090, 18406.29
208.8290, 13889.02
210.0490, 9365.789
211.2690, 5886.597
212.4890, 3521.442
213.7080, 2439.328
214.9280, 1808.254
216.1470, 1511.221
217.3660, 1697.229
218.5850, 1862.277
219.8030, 2086.517
221.0220, 2432.848
222.2400, 3222.491
223.4590, 4813.850
224.6770, 7139.253
225.8950, 10089.83
227.1120, 11813.56
228.3300, 10609.37
229.5480, 8408.305
230.7650, 6759.268
231.9820, 5659.260
233.1990, 5032.287
234.4160, 4515.338
235.6330, 4631.418
236.8490, 5391.520
238.0660, 6535.649
239.2820, 7199.804
240.4980, 6239.983
241.7140, 4788.188
242.9300, 3701.418
244.1460, 3059.674
245.3610, 2352.955
246.5770, 1695.260
247.7920, 1180.589
249.0070, 855.9478
250.2220, 583.3447
251.4370, 542.7905
252.6510, 422.2681
253.8660, 308.7759
255.0800, 286.3081
256.2940, 266.8599
257.5080, 333.4326
258.7220, 256.4038
259.9360, 330.6372
261.1490, 172.2690
262.3630, 137.9194
263.5760, 137.5889
264.7890, 84.27734
266.0020, 128.9888
267.2150, 147.7319
268.4270, 92.51025
269.6400, 40.46826
270.8520, 130.0840
272.0640, 108.6787
273.2760, 60.43604
274.4880, 14.44873
275.7000, 10.46973
276.9120, 49.39746
278.1230, 95.83398
279.3340, 137.1597
280.5450, 194.5718
281.7560, 28.93359
282.9670, 2.368652
284.1780, 146.2671
285.3880, 26.97119
286.5980, 100.7388
287.8090, 237.5679
289.0190, 251.4546
290.2290, 471.3960
291.4380, 559.3896
292.6480, 812.4331
293.8570, 1247.524
295.0670, 1797.591
296.2760, 1777.990
297.4850, 2367.997
298.6930, 1749.261
299.9020, 1230.565
301.1110, 996.9082
302.3190, 805.2871
303.5270, 533.7012
304.7350, 369.1499
305.9430, 236.6318
307.1510, 136.1455
308.3580, 195.6909
309.5660, 143.2651
310.7730, 118.8696
311.9800, 107.5020
313.1870, 65.16260
314.3940, 44.84961
315.6010, 9.436523
316.8070, 68.69727
318.0130, 33.12158
319.2200, 17.86035
320.4260, 38.65967
321.6310, 33.49463
322.8370, 77.35059
324.0430, 128.7515
325.2480, 171.6655
326.4540, 119.5977
327.6590, 351.5156
328.8640, 237.5708
330.0680, 411.5708
331.2730, 216.4438
332.4780, 268.6655
333.6820, 226.3584
334.8860, 121.4160
336.0900, 174.5376
337.2940, 127.6260
338.4980, 164.7285
339.7010, 81.56104
340.9050, 72.69287
342.1080, 104.8379
343.3110, 133.9961
344.5140, 230.8726
345.7170, 377.3467
346.9200, 457.5386
348.1220, 649.7407
349.3240, 750.9561
350.5270, 908.1885
351.7290, 984.4355
352.9310, 1445.695
354.1320, 1991.969
355.3340, 2648.267
356.5350, 2896.579
357.7370, 2585.904
358.9380, 2441.255
360.1390, 2958.617
361.3400, 3891.990
362.5400, 4402.376
363.7410, 3518.773
364.9410, 2461.182
366.1410, 1686.585
367.3410, 1296.997
368.5410, 884.4238
369.7410, 651.8608
370.9400, 431.3076
372.1400, 243.7666
373.3390, 140.3662
374.5380, 149.9482
375.7370, 108.6270
376.9360, 178.2461
378.1350, 186.8462
379.3330, 184.3521
380.5310, 233.6206
381.7300, 247.5181
382.9280, 232.0425
384.1260, 230.7363
385.3230, 291.2725
386.5210, 292.8140
387.7180, 309.0415
388.9160, 360.9136
390.1130, 338.4712
391.3100, 358.4707
392.5060, 378.3867
393.7030, 366.1738
394.9000, 410.7500
396.0960, 433.3320
397.2920, 449.9165
398.4880, 433.1177
399.6840, 430.8252
400.8800, 370.6948
402.0750, 402.2954
403.2710, 376.8989
404.4660, 382.5059
405.6610, 452.1162
406.8560, 619.9688
408.0510, 642.5850
409.2450, 823.0532
410.4400, 1038.688
411.6340, 1178.142
412.8280, 1379.115
414.0220, 1410.753
415.2160, 1311.082
416.4100, 1382.246
417.6030, 1231.920
418.7970, 1079.886
419.9900, 912.5850
421.1830, 807.4072
422.3760, 650.8574
423.5690, 495.8525
424.7610, 383.5879
425.9540, 323.9258
427.1460, 210.6533
428.3380, 193.4121
429.5300, 30.17725
430.7220, 36.94971
431.9140, 63.72754
433.1050, 185.5127
434.2970, 92.30322
435.4880, 163.0986
436.6790, 174.9004
437.8700, 285.7065
439.0610, 324.2153
440.2510, 331.3350
441.4420, 448.1548
442.6320, 560.9795
443.8220, 640.8076
445.0120, 1007.640
446.2020, 1310.476
447.3910, 1263.315
448.5810, 1124.158
449.7700, 858.0044
450.9600, 616.8535
452.1490, 491.7051
453.3370, 366.5605
454.5260, 172.4175
455.7150, 118.2773
456.9030, 73.13916
458.0910, 28.00293
459.2800, 51.77002
460.4670, 74.93701
461.6550, 68.21533
462.8430, 88.66846
464.0300, 25.08154
465.2180, 17.82373
466.4050, 1.764648
467.5920, 74.41455
468.7790, 137.8462
469.9650, 73.18359
471.1520, 106.5645
472.3380, 17.99365
473.5250, 19.44873
474.7110, 41.90869
475.8970, 98.39648
477.0820, 117.0576
478.2680, 17.51123
479.4540, 79.96436
480.6390, 49.41699
481.8240, 1.869629
483.0090, 215.3135
484.1940, 359.7573
485.3780, 575.2012
486.5630, 985.6445
487.7470, 1121.087
488.9320, 1115.529
490.1160, 805.9702
491.3000, 844.4497
492.4830, 629.4346
493.6670, 708.0391
494.8500, 734.4775
496.0340, 837.0356
497.2170, 855.2188
498.4000, 760.6533
499.5820, 719.8062
500.7650, 513.5146
501.9480, 488.9458
503.1300, 295.3745
504.3120, 176.8018
505.4940, 151.2280
506.6760, 97.65186
507.8580, 68.07373
509.0390, 47.49365
510.2210, 47.96436
511.4020, 70.38037
512.5830, 41.98633
513.7640, 46.29297
514.9450, 3.538086
516.1250, 30.93408
517.3060, 3.055176
518.4860, 4.434082
519.6660, 5.084961
520.8460, 61.26074
522.0260, 12.60986
523.2060, 22.94873
524.3850, 58.28125
525.5650, 31.61084
526.7440, 190.9355
527.9230, 269.2578
529.1020, 505.5767
530.2810, 714.3169
531.4590, 751.2061
532.6380, 1227.517
533.8160, 1628.824
534.9940, 1897.129
536.1720, 1726.430
537.3500, 1446.729
538.5270, 1133.026
539.7050, 889.3198
540.8820, 777.6094
542.0590, 404.8970
543.2360, 236.1812
544.4130, 241.4624
545.5900, 152.7407
546.7660, 121.0151
547.9430, 5.286621
549.1190, 52.54297
550.2950, 5.203125
551.4710, 49.03027
552.6470, 4.740723
553.8220, 13.53125
554.9980, 92.65381
556.1730, 18.83496
557.3480, 1.006836
558.5230, 126.1611
559.6980, 33.31152
560.8730, 120.4561
562.0470, 235.5962
563.2220, 138.7378
564.3960, 160.8745
565.5700, 273.0083
566.7440, 376.1382
567.9170, 538.2847
569.0910, 857.4277
570.2640, 1057.576
571.4380, 1449.721
572.6110, 1939.865
573.7840, 2496.005
574.9570, 3355.140
576.1290, 4227.271
577.3020, 4496.399
578.4740, 4013.522
579.6460, 3296.642
580.8180, 2452.757
581.9900, 1970.869
583.1620, 1424.976
584.3330, 1026.080
585.5040, 600.1963
586.6760, 423.3340
587.8470, 367.4683
589.0180, 221.5991
590.1880, 196.7329
591.3590, 153.8623
592.5290, 212.9888
593.7000, 204.1108
594.8700, 149.2290
596.0400, 191.1919
597.2090, 107.4507
598.3790, 198.5562
599.5490, 123.6704
600.7180, 98.78125
601.8870, 16.92334
603.0560, 116.7012
604.2250, 43.08594
605.3940, 74.17578
606.5620, 0.7329100
607.7300, 13.17383
608.8990, 111.8813
610.0670, 111.9351
611.2350, 149.0195
612.4020, 101.9839
613.5700, 195.0181
614.7370, 168.1953
615.9050, 193.0391
617.0720, 450.4272
618.2390, 561.4639
619.4060, 522.4507
620.5720, 575.4844
621.7390, 638.5303
622.9050, 532.8672
624.0710, 472.9175
625.2370, 343.9736
626.4030, 339.0283
627.5690, 214.0820
628.7340, 156.1338
629.9000, 98.18408
631.0650, 10.23877
632.2300, 5.708008
633.3950, 2.336914
634.5600, 105.3926
635.7240, 4.471191
636.8890, 43.45312
638.0530, 146.5967
639.2170, 0.6479490
640.3810, 44.30469
641.5450, 38.71680
642.7080, 25.73779
643.8720, 82.75684
645.0350, 53.77441
646.1980, 26.79102
647.3610, 32.80664
648.5240, 24.82178
649.6870, 15.16504
650.8490, 62.83740
652.0120, 124.8394
653.1740, 13.16113
654.3360, 111.8296
655.4980, 82.68506
656.6600, 10.43408
657.8210, 132.3521
658.9830, 1.204102
660.1440, 34.08057
661.3050, 191.0576
662.4660, 248.2764
663.6270, 272.8726
664.7870, 214.8486
665.9480, 227.6597
667.1080, 308.6348
668.2680, 423.6089
669.4280, 491.5381
670.5880, 601.5576
671.7480, 723.5312
672.9070, 967.5049
674.0670, 1157.478
675.2260, 1404.451
676.3850, 1749.470
677.5440, 2067.442
678.7030, 2256.416
679.8610, 2597.390
681.0200, 2853.362
682.1780, 3354.336
683.3360, 3835.310
684.4940, 4669.283
685.6520, 5520.256
686.8090, 6422.229
687.9670, 7277.966
689.1240, 7503.941
690.2810, 7303.066
691.4380, 6544.028
692.5950, 5799.175
693.7520, 5004.805
694.9080, 4339.782
696.0650, 3612.082
697.2210, 3262.560
698.3770, 2950.540
699.5330, 2683.245
700.6880, 2752.228
701.8440, 2950.212
702.9990, 3173.197
704.1550, 3646.184
705.3100, 4312.172
706.4650, 5119.436
707.6190, 5972.427
708.7740, 6722.519
709.9290, 7307.511
711.0830, 7142.975
712.2370, 6551.971
713.3910, 5811.968
714.5450, 4843.965
715.6980, 3952.965
716.8520, 3129.966
718.0050, 2691.967
719.1580, 2074.971
720.3110, 1709.991
721.4640, 1521.998
722.6170, 1238.007
723.7700, 1116.898
724.9220, 977.8936
726.0740, 999.9058
727.2260, 874.0625
728.3780, 1011.598
729.5300, 1048.613
730.6810, 988.6914
731.8330, 1117.709
732.9840, 1225.728
734.1350, 1130.748
735.2860, 933.7695
736.4370, 931.7920
737.5880, 724.9351
738.7380, 827.9604
739.8880, 908.9873
741.0390, 741.8369
742.1890, 655.9067
743.3380, 809.9941
744.4880, 936.0635
745.6380, 1016.966
746.7870, 1167.159
747.9360, 1635.265
749.0850, 1838.412
750.2340, 2259.582
751.3830, 2661.785
752.5310, 2819.991
753.6800, 2858.208
754.8280, 2774.439
755.9760, 2497.703
757.1240, 2361.968
758.2720, 2204.236
759.4190, 2008.319
760.5670, 2025.431
761.7140, 2114.708
762.8610, 2331.334
764.0080, 2561.615
765.1550, 3003.899
766.3020, 3645.184
767.4480, 4484.471
768.5950, 5244.851
769.7410, 5694.102
770.8870, 5693.852
772.0330, 5375.937
773.1780, 4526.825
774.3240, 3749.003
775.4690, 3048.557
776.6140, 2442.265
777.7590, 1966.362
778.9040, 1576.880
780.0490, 1207.188
781.1940, 940.4985
782.3380, 799.8105
783.4820, 684.1250
784.6260, 577.4414
785.7700, 481.7603
786.9140, 432.0811
788.0580, 505.3521
789.2010, 388.6777
790.3450, 432.0059
791.4880, 384.4146
792.6310, 288.7480
793.7730, 293.0889
794.9160, 287.7046
796.0590, 193.0576
797.2010, 184.3086
798.3430, 173.6777
799.4850, 40.05029
800.6270, 172.4297
801.7690, 116.8135
802.9100, 24.20068
804.0520, 144.5918
805.1930, 144.9863
806.3340, 33.38330
807.4750, 204.7837
808.6160, 256.1875
809.7560, 76.59521
810.8970, 155.0059
812.0370, 135.4199
813.1770, 1.837402
814.3170, 194.2568
815.4570, 244.6797
816.5960, 215.1064
817.7360, 127.5366
818.8750, 291.9707
820.0140, 256.4077
821.1530, 316.8491
822.2920, 225.2939
823.4310, 175.7422
824.5690, 235.1948
825.7070, 79.65674
826.8460, 258.1226
827.9840, 140.6006
829.1220, 76.08301
830.2590, 112.5781
831.3970, 35.08691
832.5340, 97.60254
833.6710, 58.12500
834.8080, 50.86328
835.9450, 31.19727
837.0820, 32.74121
838.2190, 105.2881
839.3550, 94.83984
840.4910, 29.39648
841.6270, 134.9561
842.7630, 71.47949
843.8990, 109.0596
845.0350, 34.39551
846.1700, 47.13379
847.3060, 6.333008
848.4410, 6.198242
849.5760, 63.73535
850.7100, 11.27637
851.8450, 46.82129
852.9800, 88.37109
854.1140, 68.92480
855.2480, 69.48340
856.3820, 2.045898
857.5160, 66.61328
858.6500, 134.1836
859.7830, 65.24121
860.9170, 99.69629
862.0500, 65.80273
863.1830, 0.6943360
864.3160, 25.18848
865.4480, 88.30664
866.5810, 0.8076170
867.7130, 28.32031
868.8460, 57.83594
869.9780, 43.35742
871.1100, 123.8877
872.2410, 26.42383
873.3730, 53.03613
874.5050, 84.48145
875.6360, 32.00781
876.7670, 21.46094
877.8980, 48.07520
879.0290, 62.61426
880.1590, 16.83984
881.2900, 50.70020
882.4200, 86.25098
883.5500, 90.81445
884.6800, 60.38379
885.8100, 100.9580
886.9400, 94.53613
888.0690, 68.11914
889.1990, 90.70703
890.3280, 45.29883
891.4570, 122.8955
892.5860, 29.49609
893.7140, 76.10156
894.8430, 49.28906
895.9710, 32.79297
897.1000, 98.87695
898.2280, 24.54102
899.3560, 11.03320
900.4830, 54.61133
901.6110, 41.19434
902.7380, 186.7822
903.8660, 20.62598
904.9930, 99.96191
906.1200, 83.55273
907.2460, 52.84668
908.3730, 97.26758
909.5000, 6.268555
910.6260, 2.810547
911.7520, 8.631836
912.8780, 18.92676
914.0040, 173.4922
915.1290, 67.07324
916.2550, 200.6611
917.3800, 84.25293
918.5050, 144.8506
919.6300, 191.4531
920.7550, 378.0605
921.8800, 478.6729
923.0040, 591.2910
924.1290, 735.9199
925.2530, 844.5586
926.3770, 720.2021
927.5010, 567.8555
928.6250, 641.5146
929.7480, 538.1807
930.8720, 604.8535
931.9950, 480.5342
933.1180, 486.2207
934.2410, 538.9121
935.3640, 642.6240
936.4860, 536.3418
937.6090, 615.0674
938.7310, 538.7979
939.8530, 689.5332
940.9750, 833.2852
942.0970, 950.0566
943.2180, 1123.847
944.3400, 1320.643
945.4610, 1694.443
946.5820, 1840.250
947.7030, 2074.062
948.8240, 2102.835
949.9450, 1826.658
951.0650, 1519.486
952.1860, 1490.320
953.3060, 1141.159
954.4260, 927.0176
955.5460, 927.8916
956.6650, 620.7705
957.7850, 777.6553
958.9040, 681.5459
960.0230, 600.4414
961.1420, 584.3428
962.2610, 540.2500
963.3800, 755.1621
964.4990, 589.0801
965.6170, 727.0029
966.7350, 633.4043
967.8530, 541.3379
968.9710, 709.2773
970.0890, 801.2246
971.2070, 1017.178
972.3240, 986.1377
973.4410, 1167.102
974.5580, 1332.072
975.6750, 1682.047
976.7920, 1836.027
977.9090, 2285.613
979.0250, 2777.604
980.1410, 3470.501
981.2580, 4237.504
982.3740, 5350.041
983.4890, 6491.055
984.6050, 7652.074
985.7200, 8791.100
986.8360, 9294.130
987.9510, 9250.167
989.0660, 8496.206
990.1810, 7607.254
991.2950, 6394.291
992.4100, 5019.350
993.5240, 4123.414
994.6390, 3270.602
995.7530, 2688.693
996.8660, 2233.781
997.9800, 1891.733
999.0940, 1489.318
1000.207, 1220.431
1001.320, 1231.369
1002.433, 1000.495
1003.546, 914.6260
1004.659, 731.6250
1005.772, 699.7686
1006.884, 538.9189
1007.996, 586.9551
1009.108, 463.9170
1010.220, 408.0850
1011.332, 344.0049
1012.444, 310.1855
1013.555, 286.3740
1014.666, 252.8389
1015.777, 322.8301
1016.888, 238.0527
1017.999, 228.2842
1019.110, 271.5205
1020.220, 175.7637
1021.331, 286.0117
1022.441, 273.2676
1023.551, 305.5293
1024.661, 306.4951
1025.770, 251.0713
1026.880, 231.3516
1027.989, 234.6387
1029.098, 128.1367
1030.207, 260.6406
1031.316, 272.9902
1032.425, 171.0020
1033.533, 263.3662
1034.642, 282.7363
1035.750, 292.1123
1036.858, 185.4951
1037.966, 118.7949
1039.073, 167.1904
1040.181, 177.5938
1041.288, 325.0498
1042.396, 119.8750
1043.503, 174.2988
1044.610, 132.7295
1045.716, 283.7617
1046.823, 206.2051
1047.929, 174.6582
1049.036, 315.1162
1050.142, 336.5820
1051.248, 256.0547
1052.353, 310.5342
1053.459, 353.0205
1054.564, 414.5127
1055.670, 358.0137
1056.775, 367.5195
1057.880, 395.1572
1058.985, 468.6777
1060.089, 416.2051
1061.194, 544.7383
1062.298, 593.2871
1063.402, 828.8340
1064.506, 982.6025
1065.610, 1205.163
1066.713, 1347.729
1067.817, 1572.825
1068.920, 1598.404
1070.023, 1742.442
1071.126, 1641.033
1072.229, 1628.631
1073.332, 1312.594
1074.435, 1208.322
1075.537, 1114.192
1076.639, 1040.814
1077.741, 873.4424
1078.843, 841.0742
1079.945, 761.7129
1081.046, 885.3574
1082.148, 814.0068
1083.249, 839.6621
1084.350, 785.3242
1085.451, 493.9902
1086.551, 510.8008
1087.652, 430.6816
1088.752, 382.3643
1089.853, 399.0518
1090.953, 279.7441
1092.053, 297.4404
1093.152, 275.1426
1094.252, 208.8486
1095.351, 254.5605
1096.451, 266.2773
1097.550, 129.9980
1098.649, 18.27637
1099.748, 104.4492
1100.846, 17.17969
1101.945, 124.3643
1103.043, 122.3145
1104.141, 135.0586
1105.239, 122.8076
1106.337, 23.56055
1107.434, 121.3193
1108.532, 52.08105
1109.629, 45.15137
1110.726, 169.6211
1111.823, 182.3984
1112.920, 82.18945
1114.017, 118.9854
1115.113, 155.7871
1116.210, 229.5938
1117.306, 262.4053
1118.402, 310.4961
1119.498, 356.1367
1120.593, 356.8643
1121.689, 367.5010
1122.784, 357.5244
1123.879, 333.3613
1124.974, 262.2021
1126.069, 215.0479
1127.164, 202.9131
1128.259, 126.2197
1129.353, 192.1191
1130.447, 100.1387
1131.541, 24.05469
1132.635, 42.02637
1133.729, 29.88086
1134.822, 104.7920
1135.916, 23.29395
1137.009, 144.6152
1138.102, 4.529297
1139.195, 17.44531
1140.288, 21.62207
1141.380, 29.30762
1142.473, 57.24121
1143.565, 40.99512
1144.657, 131.1279
1145.749, 47.92969
1146.841, 66.88672
1147.932, 90.95996
1149.024, 104.9346
1150.115, 68.91211
1151.206, 157.8965
1152.297, 48.88574
1153.388, 89.87695
1154.479, 143.8711
1155.569, 86.86816
1156.659, 59.86816
1157.750, 135.8701
1158.839, 6.875977
1159.929, 175.8174
1161.019, 320.2266
1162.108, 227.2686
1163.198, 179.3145
1164.287, 106.3682
1165.376, 327.4229
1166.465, 291.4814
1167.553, 247.5410
1168.642, 265.6035
1169.730, 160.6729
1170.818, 129.7520
1171.906, 229.8311
1172.994, 242.9268
1174.082, 188.0469
1175.170, 203.1680
1176.257, 159.2910
1177.344, 307.4180
1178.431, 170.5488
1179.518, 252.6797
1180.605, 242.8135
1181.691, 171.9492
1182.778, 132.0859
1183.864, 246.2227
1184.950, 203.3672
1186.036, 267.5117
1187.122, 210.6582
1188.207, 15.19531
1189.292, 134.9424
1190.378, 24.07910
1191.463, 121.2178
1192.548, 7.358398
1193.632, 114.4980
1194.717, 1.638672
1195.801, 65.77734
1196.886, 110.9180
1197.970, 51.94238
1199.054, 16.16797
1200.137, 1.721680
1201.221, 121.3828
1202.305, 25.49023
1203.388, 32.38574
1204.471, 44.29785
1205.554, 46.29199
1206.637, 80.79102
1207.719, 30.91504
1208.802, 55.94727
1209.884, 109.9785
1210.966, 47.01172
1212.048, 47.04297
1213.130, 63.07617
1214.212, 100.1084
1215.293, 115.1416
1216.374, 42.82617
1217.456, 27.77441
1218.536, 33.21289
1219.617, 121.1992
1220.698, 87.18652
1221.778, 19.17383
1222.859, 94.15918
1223.939, 108.1465
1225.019, 38.13281
1226.099, 36.12012
1227.178, 149.1074
1228.258, 151.0938
1229.337, 82.60645
1230.417, 68.59277
1231.496, 1.578125
1232.574, 6.557617
1233.653, 37.53613
1234.732, 15.51367
1235.810, 141.4951
1236.888, 54.47559
1237.966, 55.45508
1239.044, 40.43457
1240.122, 151.5391
1241.199, 120.5166
1242.277, 138.4951
1243.354, 127.4717
1244.431, 134.4482
1245.508, 102.4307
1246.585, 109.4131
1247.661, 215.3936
1248.738, 84.37500
1249.814, 183.3545
1250.890, 229.3320
1251.966, 125.3096
1253.042, 64.28613
1254.117, 62.26172
1255.193, 54.23633
1256.268, 23.20996
1257.343, 11.81738
1258.418, 71.14062
1259.493, 6.900391
1260.567, 134.0459
1261.642, 296.9902
1262.716, 140.0527
1263.790, 52.99512
1264.864, 155.9365
1265.938, 84.01562
1267.011, 94.95410
1268.085, 218.8906
1269.158, 100.8262
1270.231, 23.96289
1271.304, 64.89648
1272.377, 113.8281
1273.450, 147.8379
1274.522, 51.23340
1275.594, 142.6592
1276.666, 11.81445
1277.738, 162.8701
1278.810, 235.7998
1279.882, 38.90234
1280.953, 88.79395
1282.025, 181.6846
1283.096, 118.5732
1284.167, 112.4590
1285.238, 172.3447
1286.308, 61.22656
1287.379, 152.1074
1288.449, 50.01465
1289.519, 87.77930
1290.589, 60.00684
1291.659, 122.7900
1292.729, 157.5723
1293.798, 173.9434
1294.868, 266.1328
1295.937, 120.9102
1297.006, 106.1992
1298.075, 87.97168
1299.143, 145.9785
1300.212, 93.74707
1301.280, 58.51367
1302.348, 142.2783
1303.416, 183.0400
1304.484, 76.79785
1305.552, 124.5889
1306.620, 148.6738
1307.687, 126.4248
1308.754, 153.1719
1309.821, 142.2285
1310.888, 73.96973
1311.955, 46.70996
1313.021, 165.4121
1314.088, 101.1455
1315.154, 128.8770
1316.220, 136.6064
1317.286, 136.2109
1318.352, 262.9346
1319.417, 266.6543
1320.483, 81.37207
1321.548, 226.0801
1322.613, 232.7969
1323.678, 128.2930
1324.743, 271.0000
1325.807, 75.70605
1326.872, 182.8857
1327.936, 154.5869
1329.000, 140.8330
1330.064, 140.5303
1331.128, 34.22363
1332.191, 148.5566
1333.255, 160.1289
1334.318, 108.5645
1335.381, 11.25195
1336.444, 163.9385
1337.507, 135.6230
1338.569, 233.3057
1339.632, 104.9873
1340.694, 132.6680
1341.756, 55.34668
1342.818, 155.0254
1343.880, 127.7012
1344.941, 20.55762
1346.003, 102.0273
1347.064, 305.7012
1348.125, 105.3730
1349.186, 192.0430
1350.247, 102.7119
1351.308, 71.37988
1352.368, 49.04688
1353.428, 148.7129
1354.489, 160.4775
1355.549, 146.1406
1356.608, 122.8037
1357.668, 73.46777
1358.727, 184.1309
1359.787, 66.34375
1360.846, 108.9746
1361.905, 190.6348
1362.964, 94.13477
1364.022, 115.7842
1365.081, 147.4248
1366.139, 146.0566
1367.197, 213.6875
1368.255, 160.2354
1369.313, 81.96289
1370.371, 109.5820
1371.428, 93.20117
1372.486, 158.3311
1373.543, 61.94922
1374.600, 134.7529
1375.657, 48.35645
1376.713, 176.9600
1377.770, 160.5625
1378.826, 133.1592
1379.882, 182.7578
1380.938, 187.3701
1381.994, 113.9570
1383.050, 176.6221
1384.106, 144.2061
1385.161, 252.5557
1386.216, 109.2588
1387.271, 133.8545
1388.326, 63.43750
1389.381, 192.0986
1390.435, 161.6885
1391.490, 105.2783
1392.544, 61.86816
1393.598, 120.4600
1394.652, 161.0537
1395.705, 173.6455
1396.759, 165.2383
1397.812, 99.91406
1398.866, 167.5068
1399.919, 22.09863
1400.972, 43.69141
1402.024, 97.42969
1403.077, 15.92969
1404.129, 14.45410
1405.181, 32.12598
1406.233, 15.29590
1407.285, 93.26367
1408.337, 116.8242
1409.389, 149.3848
1410.440, 178.7471
1411.491, 184.4883
1412.542, 156.0264
1413.593, 200.5664
1414.644, 122.1064
1415.695, 36.28711
1416.745, 107.8682
1417.795, 47.39648
1418.845, 75.92285
1419.895, 112.0029
1420.945, 146.5322
1421.995, 37.06348
1423.044, 8.403320
1424.093, 60.12598
1425.142, 20.95508
1426.191, 145.5732
1427.240, 67.05566
1428.289, 191.5391
1429.337, 109.0225
1430.385, 123.5059
1431.433, 28.99316
1432.481, 4.517578
1433.529, 161.9707
1434.577, 38.46191
1435.624, 4.064453
1436.672, 124.4170
1437.719, 95.29102
1438.766, 17.25098
1439.812, 205.2080
1440.859, 196.6719
1441.905, 98.22949
1442.952, 270.7041
1443.998, 112.1562
1445.044, 56.61719
1446.090, 107.0742
1447.135, 90.54004
1448.181, 67.26270
1449.226, 94.55469
1450.271, 226.1328
1451.316, 144.7246
1452.361, 216.3311
1453.405, 252.9189
1454.450, 143.5596
1455.494, 124.1426
1456.538, 65.82324
1457.582, 174.5029
1458.626, 334.1797
1459.670, 224.8564
1460.713, 246.5215
1461.757, 80.24609
1462.800, 82.96875
1463.843, 273.6924
1464.886, 109.4150
1465.928, 190.1357
1466.971, 120.8584
1468.013, 63.58594
1469.055, 166.3115
1470.097, 2.967773
1471.139, 272.7529
1472.181, 197.4746
1473.222, 77.19727
1474.263, 142.9033
1475.305, 60.60840
1476.346, 158.3145
1477.386, 66.02148
1478.427, 134.7285
1479.468, 30.43750
1480.508, 124.1621
1481.548, 265.9014
1482.588, 211.6406
1483.628, 168.3818
1484.668, 176.1260
1485.707, 13.87207
1486.747, 219.6191
1487.786, 13.74707
1488.825, 170.2002
1489.864, 239.1865
1490.902, 90.10840
1491.941, 261.8252
1492.979, 152.5439
1494.017, 62.26562
1495.055, 119.2314
1496.093, 122.0527
1497.131, 28.12500
1498.168, 257.7002
1499.206, 9.670898
1500.243, 65.39746
1501.280, 171.1953
1502.317, 233.9990
1503.354, 133.1621
1504.390, 110.9717
1505.426, 52.22070
1506.463, 69.24512
1507.499, 37.05664
1508.535, 118.8359
1509.570, 15.64258
1510.606, 29.45605
1511.641, 28.16895
1512.676, 230.0957
1513.711, 40.92871
1514.746, 210.7666
1515.781, 145.6104
1516.816, 75.45605
1517.850, 127.3057
1518.884, 154.1572
1519.918, 66.00977
1520.952, 85.86621
1521.986, 44.94922
1523.019, 134.7930
1524.053, 124.6377
1525.086, 166.4854
1526.119, 200.3359
1527.152, 36.07812
1528.185, 136.7695
1529.217, 101.6172
1530.250, 270.9473
1531.282, 130.3301
1532.314, 157.2295
1533.346, 199.3291
1534.377, 238.1475
1535.409, 257.2500
1536.440, 139.5361
1537.472, 193.5273
1538.503, 238.5352
1539.534, 88.50391
1540.564, 174.3125
1541.595, 164.7432
1542.625, 132.8486
1543.656, 7.396484
1544.686, 168.6904
1545.716, 321.7871
1546.745, 173.8945
1547.775, 123.6279
1548.804, 2.783203
1549.834, 178.9561
1550.863, 180.7676
1551.892, 79.45312
1552.920, 274.2598
1553.949, 165.0391
1554.977, 179.0928
1556.006, 90.15918
1557.034, 146.2246
1558.062, 97.35352
1559.089, 198.6299
1560.117, 87.39355
1561.144, 5.084961
1562.172, 138.8350
1563.199, 220.1396
1564.226, 171.4932
1565.252, 79.84668
1566.279, 155.5693
1567.305, 118.0537
1568.332, 129.8350
1569.358, 252.4863
1570.384, 207.1670
1571.409, 0.7705080
1572.435, 0.0000000E+00
##END=



