##NAMES=Carrollite
##RRUFFID=R040165
##IDEAL CHEMISTRY=Cu^1+^Co^3+^_2_S_4_
##LOCALITY=Katanga, Democratic Republic of the Congo
##OWNER=RRUFF
##SOURCE=University of Arizona Mineral Museum
##DESCRIPTION=Steel gray octahedral crystals that have a tarnished exterior
##STATUS=The identification of this mineral has been confirmed by X-ray diffraction and chemical analysis
##URL=rruff.info/R040165
##MEASURED CHEMISTRY=(Cu_0.97_Fe_0.03_)Co_1.98_S_4_
##PIN_ID=M00105
##ORIENTATION=Laser parallel to -a* (-1 0 0). Fiducial mark perpendicular to laser is parallel to -c [0 0 -1]
96.62100, 0.0000000E+00
97.86200, 9.199219
99.10300, 586.1953
100.3440, 13.58594
101.5850, 0.6679690
102.8250, 819.6055
104.0650, 2927.262
105.3050, 4530.906
106.5450, 6685.223
107.7850, 8971.902
109.0250, 7228.914
110.2640, 7005.520
111.5030, 8500.797
112.7420, 10136.86
113.9810, 10850.95
115.2200, 10442.91
116.4580, 9304.289
117.6970, 9338.805
118.9350, 6607.762
120.1730, 5354.977
121.4100, 3769.551
122.6480, 3585.109
123.8850, 1921.266
125.1230, 598.3242
126.3600, 850.0117
127.5960, 1163.070
128.8330, 1672.789
130.0700, 1570.906
131.3060, 1978.707
132.5420, 1002.590
133.7780, 560.2812
135.0140, 637.0156
136.2500, 1101.992
137.4850, 947.8828
138.7200, 1691.426
139.9550, 1122.180
141.1900, 220.7930
142.4250, 21.36719
143.6600, 319.0039
144.8940, 219.7734
146.1280, 126.7500
147.3620, 259.0039
148.5960, 377.4648
149.8300, 128.5430
151.0630, 751.9141
152.2960, 819.2578
153.5300, 938.0664
154.7620, 504.7305
155.9950, 190.4922
157.2280, 11.42578
158.4600, 17.01562
159.6920, 289.1172
160.9250, 429.4180
162.1560, 852.8906
163.3880, 1381.289
164.6200, 1725.422
165.8510, 1372.637
167.0820, 856.7617
168.3130, 1098.781
169.5440, 998.8320
170.7750, 1271.969
172.0050, 718.3633
173.2350, 656.9844
174.4650, 778.8398
175.6950, 854.9297
176.9250, 1065.242
178.1550, 1022.758
179.3840, 1002.477
180.6130, 663.3711
181.8420, 944.4336
183.0710, 862.6562
184.3000, 982.0234
185.5280, 1461.523
186.7570, 1557.141
187.9850, 1542.859
189.2130, 1925.672
190.4400, 2481.574
191.6680, 2560.559
192.8960, 2850.613
194.1230, 2760.703
195.3500, 3140.848
196.5770, 2908.051
197.8030, 2767.301
199.0300, 3033.613
200.2560, 3406.949
201.4830, 3538.164
202.7090, 2863.340
203.9340, 1636.535
205.1600, 844.7383
206.3860, 270.9453
207.6110, 102.1680
208.8360, 436.6094
210.0610, 168.3711
211.2860, 49.87891
212.5100, 40.14844
213.7350, 256.4336
214.9590, 48.25781
216.1830, 3.078125
217.4070, 6.566406
218.6310, 93.19141
219.8540, 26.78906
221.0780, 101.6445
222.3010, 109.8945
223.5240, 173.4023
224.7470, 91.05078
225.9690, 88.63281
227.1920, 13.83203
228.4140, 84.10938
229.6360, 399.0703
230.8580, 287.1016
232.0800, 2.238281
233.3020, 435.5117
234.5230, 94.95312
235.7440, 64.52344
236.9650, 229.8438
238.1860, 275.9258
239.4070, 363.5781
240.6280, 409.7344
241.8480, 477.6797
243.0680, 572.2891
244.2880, 639.5273
245.5080, 765.5938
246.7280, 909.6719
247.9470, 984.6055
249.1660, 913.0195
250.3860, 1150.363
251.6040, 1250.727
252.8230, 1401.082
254.0420, 1293.414
255.2600, 922.3594
256.4790, 1070.945
257.6970, 1135.008
258.9150, 1119.082
260.1320, 783.7578
261.3500, 860.6680
262.5670, 772.2461
263.7840, 676.9648
265.0010, 811.6523
266.2180, 522.3164
267.4350, 832.5352
268.6510, 253.8672
269.8680, 610.1367
271.0840, 607.3242
272.3000, 136.4453
273.5160, 313.4492
274.7310, 467.0508
275.9470, 515.5312
277.1620, 460.9297
278.3770, 346.2344
279.5920, 113.4453
280.8070, 37.57031
282.0210, 23.62500
283.2360, 101.6172
284.4500, 433.5508
285.6640, 306.4336
286.8780, 215.2656
288.0920, 36.83203
289.3050, 322.8281
290.5180, 296.5547
291.7320, 701.9922
292.9450, 43.69531
294.1570, 378.2500
295.3700, 256.8906
296.5830, 300.5469
297.7950, 540.1602
299.0070, 532.7344
300.2190, 603.7344
301.4310, 964.6523
302.6420, 870.6719
303.8540, 890.8477
305.0650, 1172.430
306.2760, 1170.320
307.4870, 1011.945
308.6980, 1208.012
309.9080, 1173.773
311.1190, 1288.355
312.3290, 1058.656
313.5390, 1056.008
314.7490, 1000.418
315.9580, 1051.887
317.1680, 701.4102
318.3770, 987.9922
319.5860, 608.6289
320.7950, 650.3281
322.0040, 1026.078
323.2130, 705.8867
324.4210, 479.7461
325.6290, 543.6602
326.8380, 806.6250
328.0460, 666.6406
329.2530, 835.7109
330.4610, 569.8359
331.6680, 1117.008
332.8760, 667.2383
334.0830, 1045.520
335.2890, 1576.852
336.4960, 901.2344
337.7030, 1298.668
338.9090, 1168.156
340.1150, 1134.691
341.3210, 1265.281
342.5270, 1410.922
343.7330, 1754.621
344.9380, 1507.367
346.1440, 2127.168
347.3490, 2042.016
348.5540, 2019.926
349.7590, 2474.883
350.9630, 2824.902
352.1680, 2775.758
353.3720, 2853.238
354.5760, 2925.074
355.7800, 3328.043
356.9840, 3204.508
358.1870, 3227.836
359.3910, 3185.250
360.5940, 3075.953
361.7970, 2793.176
363.0000, 2652.969
364.2030, 2457.867
365.4050, 2168.113
366.6080, 1993.957
367.8100, 1710.578
369.0120, 1448.512
370.2140, 1324.340
371.4150, 1083.758
372.6170, 972.3086
373.8180, 866.0586
375.0190, 722.7539
376.2200, 622.8203
377.4210, 595.8242
378.6220, 464.7852
379.8220, 485.4492
381.0230, 502.9492
382.2230, 424.5898
383.4230, 511.2969
384.6220, 426.0859
385.8220, 504.9492
387.0220, 362.8945
388.2210, 333.9258
389.4200, 244.0078
390.6190, 392.1367
391.8180, 211.3125
393.0160, 220.5391
394.2150, 448.8242
395.4130, 411.1836
396.6110, 204.6094
397.8090, 308.1055
399.0060, 390.6680
400.2040, 186.2969
401.4010, 213.9844
402.5980, 154.7148
403.7950, 500.5039
404.9920, 428.3398
406.1890, 700.2305
407.3860, 116.1719
408.5820, 329.1680
409.7780, 106.2266
410.9740, 429.3438
412.1700, 175.5195
413.3650, 326.7500
414.5610, 509.0742
415.7560, 242.4609
416.9510, 402.9023
418.1460, 590.4023
419.3410, 663.9648
420.5360, 746.4141
421.7300, 289.2852
422.9240, 702.0586
424.1180, 470.9180
425.3120, 176.8477
426.5060, 502.8750
427.7000, 243.9727
428.8930, 530.1367
430.0860, 428.3984
431.2790, 381.7266
432.4720, 325.1641
433.6650, 397.6836
434.8580, 594.2812
436.0500, 110.0195
437.2420, 707.8359
438.4340, 339.7227
439.6260, 307.7188
440.8180, 451.7891
442.0090, 789.9375
443.2010, 684.1562
444.3920, 540.4531
445.5830, 828.8203
446.7740, 565.2812
447.9640, 277.8477
449.1550, 410.5586
450.3450, 315.2422
451.5350, 369.2461
452.7250, 548.2227
453.9150, 652.2852
455.1050, 942.4258
456.2940, 303.6562
457.4830, 690.9727
458.6720, 367.3828
459.8610, 891.8789
461.0500, 1037.461
462.2390, 514.1289
463.4270, 233.8867
464.6150, 706.7266
465.8040, 735.6562
466.9910, 601.6641
468.1790, 760.7656
469.3670, 721.4180
470.5540, 887.2227
471.7410, 706.5820
472.9280, 752.0273
474.1150, 599.5547
475.3020, 684.1680
476.4890, 716.8711
477.6750, 658.6602
478.8610, 807.5781
480.0470, 747.5391
481.2330, 826.5898
482.4190, 874.7188
483.6040, 705.9375
484.7900, 1055.242
485.9750, 1310.637
487.1600, 1148.113
488.3450, 977.6758
489.5290, 1104.324
490.7140, 632.0781
491.8980, 861.9219
493.0820, 1100.852
494.2660, 807.8672
495.4500, 879.9688
496.6340, 812.1680
497.8170, 1230.602
499.0010, 1257.191
500.1840, 1307.887
501.3670, 1489.684
502.5500, 982.5703
503.7320, 1024.574
504.9150, 843.6914
506.0970, 1109.922
507.2790, 1394.289
508.4610, 1170.777
509.6430, 1190.406
510.8250, 1241.168
512.0060, 1107.109
513.1870, 1348.184
514.3680, 1419.387
515.5490, 1207.781
516.7300, 1309.297
517.9110, 1304.008
519.0910, 1583.918
520.2710, 1311.914
521.4510, 1477.129
522.6310, 1307.531
523.8110, 1297.023
524.9910, 1534.617
526.1700, 1580.289
527.3490, 1664.871
528.5280, 1330.891
529.7070, 1767.852
530.8860, 1601.852
532.0650, 1515.938
533.2430, 1717.102
534.4210, 1433.348
535.5990, 1559.969
536.7770, 1642.211
537.9550, 1332.246
539.1320, 1690.023
540.3100, 1502.566
541.4870, 1672.199
542.6640, 1672.941
543.8410, 1623.824
545.0170, 1883.789
546.1940, 1558.828
547.3700, 1773.941
548.5470, 2014.137
549.7230, 1818.410
550.8980, 1874.855
552.0740, 2220.285
553.2500, 2011.789
554.4250, 1995.371
555.6000, 1965.469
556.7750, 2171.277
557.9500, 2156.137
559.1250, 2184.078
560.2990, 2234.094
561.4730, 2031.180
562.6480, 2188.344
563.8220, 2078.695
564.9950, 1753.023
566.1690, 2251.461
567.3430, 2128.234
568.5160, 2244.848
569.6890, 2108.531
570.8620, 2144.461
572.0350, 2044.344
573.2070, 2025.797
574.3800, 1891.824
575.5520, 1756.926
576.7240, 1923.461
577.8960, 1144.715
579.0680, 1511.043
580.2400, 963.1289
581.4110, 1259.586
582.5830, 743.1367
583.7540, 741.7578
584.9250, 580.4570
586.0950, 417.2266
587.2660, 409.0586
588.4370, 712.9570
589.6070, 353.3828
590.7770, 14.41406
591.9470, 482.5039
593.1170, 460.1055
594.2860, 271.3242
595.4560, 155.6016
596.6250, 488.9414
597.7940, 44.33984
598.9630, 378.5703
600.1320, 185.0938
601.3000, 128.6758
602.4690, 363.3242
603.6370, 111.0273
604.8050, 125.7891
605.9730, 230.6094
607.1410, 384.4883
608.3090, 380.4180
609.4760, 78.41406
610.6430, 473.4609
611.8100, 144.0781
612.9770, 538.7305
614.1440, 17.94922
615.3110, 157.2227
616.4770, 596.5469
617.6430, 73.92578
618.8090, 3.644531
619.9750, 368.8672
621.1410, 343.4258
622.3070, 224.0430
623.4720, 478.7148
624.6370, 338.4492
625.8020, 390.2422
626.9670, 431.3867
628.1320, 386.9805
629.2970, 372.9219
630.4610, 377.4141
631.6250, 425.3555
632.7890, 531.5508
633.9530, 558.6875
635.1170, 495.8750
636.2810, 532.1094
637.4440, 392.3906
638.6070, 421.7578
639.7700, 218.0938
640.9330, 402.5117
642.0960, 361.2617
643.2590, 322.4766
644.4210, 486.0273
645.5830, 332.6172
646.7450, 299.6133
647.9070, 161.4180
649.0690, 42.30469
650.2310, 314.0625
651.3920, 251.5469
652.5530, 165.0312
653.7140, 146.6406
654.8750, 56.63672
656.0360, 139.5781
657.1970, 97.55469
658.3570, 79.60938
659.5170, 30.65234
660.6770, 57.73047
661.8370, 290.3125
662.9970, 15.44922
664.1570, 540.8320
665.3160, 38.02344
666.4750, 194.2461
667.6340, 291.4961
668.7930, 90.22266
669.9520, 103.0508
671.1110, 138.3555
672.2690, 56.67969
673.4270, 11.03516
674.5850, 65.58984
675.7430, 99.92188
676.9010, 113.8555
678.0590, 146.3633
679.2160, 96.65234
680.3730, 73.85547
681.5300, 23.55078
682.6870, 160.7617
683.8440, 155.0977
685.0010, 223.4570
686.1570, 118.8398
687.3130, 134.2383
688.4690, 64.66016
689.6250, 44.89453
690.7810, 84.54297
691.9370, 242.0039
693.0920, 25.48047
694.2470, 165.2734
695.4020, 14.16406
696.5570, 56.33203
697.7120, 124.8086
698.8670, 243.1328
700.0210, 121.7969
701.1750, 407.3203
702.3290, 68.14844
703.4830, 84.62891
704.6370, 205.4297
705.7910, 137.0781
706.9440, 289.5078
708.0970, 899.9492
709.2510, 91.58594
710.4030, 123.5508
711.5560, 145.0234
712.7090, 107.3398
713.8610, 415.4375
715.0140, 275.1914
716.1660, 257.6055
717.3180, 63.84766
718.4690, 120.8555
719.6210, 271.3164
720.7730, 83.31641
721.9240, 135.5156
723.0750, 803.3320
724.2260, 195.0000
725.3770, 339.3477
726.5270, 165.5664
727.6780, 85.20703
728.8280, 337.9570
729.9780, 193.2695
731.1280, 32.44141
732.2780, 222.6016
733.4280, 387.7695
734.5770, 188.4375
735.7260, 265.6055
736.8760, 32.05469
738.0250, 302.2188
739.1730, 346.5273
740.3220, 484.6875
741.4700, 228.8594
742.6190, 341.0273
743.7670, 382.8828
744.9150, 329.3750
746.0630, 477.5430
747.2100, 272.7188
748.3580, 136.8906
749.5050, 220.0664
750.6520, 153.2422
751.7990, 153.4180
752.9460, 316.5898
754.0930, 181.7656
755.2390, 322.9375
756.3860, 320.1055
757.5320, 167.4219
758.6780, 736.5898
759.8240, 337.7539
760.9690, 399.9180
762.1150, 250.3828
763.2600, 530.5352
764.4060, 287.6914
765.5510, 568.8438
766.6950, 520.3281
767.8400, 8.468750
768.9850, 434.6641
770.1290, 354.0156
771.2730, 631.1094
772.4170, 435.1914
773.5610, 386.2734
774.7050, 482.3516
775.8480, 410.4219
776.9920, 315.4844
778.1350, 408.5469
779.2780, 286.6016
780.4210, 506.6484
781.5640, 205.6875
782.7060, 259.7266
783.8490, 143.7539
784.9910, 107.9180
786.1330, 73.67188
787.2750, 264.8984
788.4170, 0.8632810
789.5580, 91.76953
790.7000, 129.6641
791.8410, 260.4688
792.9820, 205.2188
794.1230, 344.8945
795.2640, 57.57031
796.4040, 222.2031
797.5450, 348.8281
798.6850, 213.5508
799.8250, 429.9023
800.9650, 33.34375
802.1050, 425.7461
803.2450, 443.1406
804.3840, 390.5234
805.5230, 393.9023
806.6630, 232.2305
807.8020, 327.5938
808.9400, 335.7344
810.0790, 447.2891
811.2170, 517.6250
812.3560, 235.6602
813.4940, 386.1445
814.6320, 481.9102
815.7700, 237.0039
816.9070, 312.4141
818.0450, 180.7930
819.1820, 303.1406
820.3190, 286.4219
821.4560, 300.4609
822.5930, 236.9609
823.7300, 316.2188
824.8670, 307.4727
826.0030, 206.7188
827.1390, 279.8555
828.2750, 294.0898
829.4110, 713.3164
830.5470, 110.5391
831.6820, 482.3008
832.8180, 120.5664
833.9530, 301.5312
835.0880, 518.6172
836.2230, 602.6992
837.3580, 294.7773
838.4920, 178.8477
839.6270, 501.8008
840.7610, 125.1523
841.8950, 319.8047
843.0290, 54.51562
844.1630, 435.3750
845.2960, 200.2617
846.4300, 154.0312
847.5630, 410.7305
848.6960, 129.9961
849.8290, 10.75781
850.9620, 189.4922
852.0940, 3.859375
853.2270, 395.5664
854.3590, 104.2734
855.4910, 206.2812
856.6230, 58.01562
857.7550, 180.6289
858.8870, 21.72266
860.0180, 55.89844
861.1500, 80.50781
862.2810, 277.1172
863.4120, 276.7305
864.5430, 154.8750
865.6730, 68.48438
866.8040, 216.0977
867.9340, 199.2617
869.0640, 420.8750
870.1940, 37.49219
871.3240, 457.1055
872.4540, 49.71484
873.5830, 169.5664
874.7130, 57.17969
875.8420, 219.7930
876.9710, 296.4102
878.1000, 129.0312
879.2290, 271.6562
880.3570, 102.2852
881.4860, 335.9141
882.6140, 173.5508
883.7420, 155.1914
884.8700, 66.83203
885.9980, 75.47656
887.1250, 146.1289
888.2530, 289.7773
889.3800, 121.4375
890.5070, 101.1328
891.6340, 322.7695
892.7610, 75.55859
893.8880, 70.07422
895.0140, 192.7148
896.1400, 140.3555
897.2670, 63.98828
898.3930, 310.6211
899.5180, 307.2422
900.6440, 356.8672
901.7700, 8.503906
902.8950, 60.14062
904.0200, 23.28516
905.1450, 5.933594
906.2700, 124.5898
907.3950, 131.2539
908.5190, 331.9219
909.6440, 462.5977
910.7680, 684.2852
911.8920, 468.9766
913.0160, 372.6797
914.1400, 184.3906
915.2630, 301.1133
916.3870, 355.8438
917.5100, 118.5781
918.6330, 67.32812
919.7560, 2.277344
920.8790, 489.3633
922.0010, 324.9688
923.1240, 349.7539
924.2460, 38.86719
925.3680, 298.0195
926.4900, 101.1016
927.6120, 235.8398
928.7340, 294.6953
929.8550, 580.5625
930.9760, 328.3984
932.0980, 174.2891
933.2190, 74.19531
934.3390, 340.6484
935.4600, 250.5859
936.5810, 451.3164
937.7010, 205.2852
938.8210, 390.2695
939.9410, 171.2695
941.0610, 45.28906
942.1810, 283.3516
943.3010, 406.4297
944.4200, 171.5352
945.5390, 320.6562
946.6580, 263.7969
947.7770, 300.9688
948.8960, 367.1719
950.0150, 128.4141
951.1330, 63.70703
952.2510, 625.0352
953.3690, 357.3906
954.4870, 490.7734
955.6050, 470.1797
956.7230, 370.6094
957.8400, 486.0547
958.9580, 204.5234
960.0750, 343.0117
961.1920, 667.5273
962.3090, 548.0742
963.4250, 325.6406
964.5420, 397.2305
965.6580, 616.0898
966.7740, 499.7617
967.8900, 429.7422
969.0060, 456.4570
970.1220, 356.1914
971.2380, 292.0195
972.3530, 441.8633
973.4680, 439.7383
974.5830, 301.7305
975.6980, 577.1875
976.8130, 594.2617
977.9280, 284.2422
979.0420, 537.3984
980.1560, 604.5781
981.2710, 510.0898
982.3850, 605.1172
983.4980, 628.2891
984.6120, 566.2891
985.7260, 707.6680
986.8390, 702.5898
987.9520, 691.2305
989.0650, 964.5938
990.1780, 579.1953
991.2910, 759.0117
992.4030, 836.6719
993.5160, 638.7422
994.6280, 495.0000
995.7400, 798.6094
996.8520, 742.3789
997.9640, 608.1836
999.0750, 475.0977
1000.187, 932.8984
1001.298, 525.8750
1002.409, 920.8867
1003.520, 720.9297
1004.631, 484.5117
1005.741, 761.6172
1006.852, 800.4766
1007.962, 618.6445
1009.072, 860.7031
1010.182, 616.9375
1011.292, 776.1992
1012.402, 439.4961
1013.511, 895.8320
1014.621, 825.2031
1015.730, 626.6016
1016.839, 529.0312
1017.948, 542.4961
1019.056, 519.2656
1020.165, 622.5977
1021.273, 665.2070
1022.382, 540.8984
1023.490, 649.6406
1024.598, 498.4180
1025.706, 537.3281
1026.813, 572.8750
1027.921, 553.7461
1029.028, 628.8867
1030.135, 783.5820
1031.242, 732.2461
1032.349, 826.2461
1033.456, 865.2773
1034.562, 779.3477
1035.668, 652.1055
1036.775, 875.2344
1037.881, 819.3281
1038.987, 723.2891
1040.092, 718.5352
1041.198, 769.8203
1042.303, 902.1406
1043.408, 821.4922
1044.514, 763.8789
1045.618, 1087.297
1046.723, 1101.754
1047.828, 770.2383
1048.932, 989.7578
1050.037, 987.3125
1051.141, 1071.898
1052.245, 1056.520
1053.349, 1126.031
1054.452, 763.7266
1055.556, 1195.469
1056.659, 1159.242
1057.762, 678.0742
1058.865, 915.9492
1059.968, 839.8594
1061.071, 1114.949
1062.174, 1167.016
1063.276, 1075.121
1064.378, 1107.273
1065.480, 1076.922
1066.582, 823.6836
1067.684, 1032.016
1068.786, 1003.391
1069.887, 989.8203
1070.988, 1129.277
1072.090, 1112.773
1073.191, 1277.305
1074.291, 1028.871
1075.392, 1303.465
1076.493, 1054.680
1077.593, 1215.344
1078.693, 1106.043
1079.793, 1117.777
1080.893, 837.5391
1081.993, 1106.336
1083.092, 1137.227
1084.192, 1479.145
1085.291, 996.1523
1086.390, 1315.141
1087.489, 853.1562
1088.588, 891.1211
1089.686, 1104.207
1090.785, 1241.320
1091.883, 1158.469
1092.981, 927.0234
1094.079, 1243.234
1095.177, 1088.609
1096.275, 909.8906
1097.373, 1176.199
1098.470, 907.5508
1099.567, 1209.930
1100.664, 989.3906
1101.761, 935.0859
1102.858, 1127.551
1103.954, 1219.812
1105.051, 1232.184
1106.147, 943.7188
1107.243, 1049.164
1108.339, 991.1289
1109.435, 924.6680
1110.531, 1088.324
1111.626, 828.0820
1112.722, 988.1484
1113.817, 980.5352
1114.912, 1049.734
1116.007, 952.6914
1117.101, 907.0664
1118.196, 1027.809
1119.290, 1056.508
1120.385, 940.5078
1121.479, 1014.832
1122.573, 749.2031
1123.666, 781.9727
1124.760, 943.4844
1125.853, 836.0508
1126.947, 913.6016
1128.040, 920.7266
1129.133, 607.7500
1130.226, 864.2539
1131.318, 867.3281
1132.411, 623.1680
1133.503, 848.0000
1134.596, 637.9766
1135.688, 583.2109
1136.780, 645.2891
1137.871, 585.6211
1138.963, 467.0156
1140.054, 349.7305
1141.146, 442.4727
1142.237, 232.2383
1143.328, 596.0273
1144.419, 285.3711
1145.509, 290.2109
1146.600, 457.0781
1147.690, 346.9648
1148.780, 534.8750
1149.870, 368.1875
1150.960, 478.5859
1152.050, 266.6094
1153.139, 310.5391
1154.229, 395.2109
1155.318, 276.2539
1156.407, 480.3164
1157.496, 200.4023
1158.585, 81.53125
1159.674, 26.67969
1160.762, 468.8516
1161.850, 92.03906
1162.939, 154.2695
1164.027, 699.5195
1165.114, 46.79297
1166.202, 462.0820
1167.290, 231.3945
1168.377, 432.7266
1169.464, 194.0781
1170.551, 62.45312
1171.638, 31.84375
1172.725, 161.2578
1173.812, 35.68750
1174.898, 206.1406
1175.984, 159.0508
1177.071, 154.0938
1178.157, 172.5977
1179.242, 111.1211
1180.328, 196.6641
1181.414, 249.2188
1182.499, 111.8008
1183.584, 538.3906
1184.669, 285.0039
1185.754, 306.6289
1186.839, 242.2773
1187.924, 30.94141
1189.008, 328.6211
1190.092, 229.3164
1191.177, 64.97266
1192.260, 392.7383
1193.344, 86.46094
1194.428, 126.1992
1195.512, 115.9570
1196.595, 46.01172
1197.678, 228.5117
1198.761, 56.89453
1199.844, 82.70703
1200.927, 52.53125
1202.009, 232.3750
1203.092, 93.23438
1204.174, 73.89844
1205.256, 350.9531
1206.338, 46.17578
1207.420, 770.6875
1208.502, 92.56641
1209.583, 142.4531
1210.665, 170.3555
1211.746, 56.26953
1212.827, 136.8906
1213.908, 63.83203
1214.988, 0.7773440
1216.069, 209.7383
1217.149, 134.7031
1218.230, 21.31641
1219.310, 391.6641
1220.390, 364.6562
1221.470, 112.6562
1222.549, 27.33203
1223.629, 107.6719
1224.708, 0.6914060
1225.787, 89.90234
1226.866, 60.39844
1227.945, 244.4414
1229.024, 259.4922
1230.103, 293.5547
1231.181, 251.6211
1232.259, 267.3008
1233.337, 171.6484
1234.415, 123.6094
1235.493, 311.4258
1236.571, 94.38672
1237.648, 23.78516
1238.726, 154.0312
1239.803, 100.8516
1240.880, 431.6836
1241.957, 188.5312
1243.034, 34.38672
1244.110, 22.25391
1245.187, 364.1250
1246.263, 225.9961
1247.339, 273.3125
1248.415, 48.01953
1249.491, 52.91406
1250.566, 174.8164
1251.642, 434.7227
1252.717, 349.3906
1253.793, 385.1406
1254.868, 254.4648
1255.943, 277.3867
1257.017, 122.3164
1258.092, 149.2461
1259.166, 196.7930
1260.241, 143.0586
1261.315, 402.9141
1262.389, 120.7734
1263.462, 204.6406
1264.536, 339.5078
1265.610, 143.3789
1266.683, 255.2578
1267.756, 96.13672
1268.829, 144.0156
1269.902, 273.8984
1270.975, 242.7891
1272.048, 193.6797
1273.120, 34.43359
1274.192, 113.4336
1275.264, 75.30469
1276.336, 329.1797
1277.408, 213.0625
1278.480, 115.0703
1279.551, 3.734375
1280.623, 11.53125
1281.694, 191.6836
1282.765, 50.00781
1283.836, 67.62891
1284.907, 149.2734
1285.977, 182.3984
1287.048, 256.5586
1288.118, 232.2031
1289.188, 197.8516
1290.258, 321.5000
1291.328, 342.6055
1292.398, 262.7930
1293.467, 466.4453
1294.537, 392.0977
1295.606, 349.1602
1296.675, 465.4062
1297.744, 297.0625
1298.813, 157.7188
1299.882, 268.5430
1300.950, 316.0430
1302.018, 393.7031
1303.086, 418.3594
1304.155, 480.0234
1305.222, 410.5781
1306.290, 310.3516
1307.358, 219.0156
1308.425, 362.6875
1309.492, 241.3555
1310.559, 206.0273
1311.626, 144.6953
1312.693, 321.3633
1313.760, 571.0391
1314.826, 75.71875
1315.893, 300.3984
1316.959, 144.0742
1318.025, 283.7578
1319.091, 372.4453
1320.157, 209.0898
1321.222, 327.7773
1322.288, 397.4648
1323.353, 590.1484
1324.418, 145.8203
1325.483, 270.4961
1326.548, 10.17188
1327.612, 375.8398
1328.677, 479.5039
1329.741, 86.16797
1330.806, 223.8242
1331.870, 310.4219
1332.934, 279.0234
1333.997, 367.6172
1335.061, 299.6328
1336.124, 256.2227
1337.188, 438.8125
1338.251, 469.3984
1339.314, 336.9805
1340.377, 176.4414
1341.439, 277.0820
1342.502, 165.6055
1343.564, 536.0703
1344.627, 367.5898
1345.689, 459.5039
1346.751, 331.7188
1347.813, 455.2344
1348.874, 508.7031
1349.936, 426.1680
1350.997, 166.2500
1352.058, 352.7109
1353.119, 512.0352
1354.180, 26.49219
1355.241, 307.9414
1356.301, 101.3984
1357.362, 401.8438
1358.422, 314.2891
1359.482, 193.7383
1360.542, 483.7188
1361.602, 259.5195
1362.662, 310.4648
1363.721, 107.2812
1364.781, 253.7266
1365.840, 306.4883
1366.899, 363.9336
1367.958, 314.3789
1369.017, 438.3281
1370.075, 467.6523
1371.134, 344.1094
1372.192, 155.5625
1373.250, 435.0117
1374.308, 124.5273
1375.366, 2.894531
1376.424, 300.3125
1377.481, 268.7305
1378.539, 315.1562
1379.596, 477.5820
1380.653, 318.0039
1381.710, 112.4336
1382.767, 117.8633
1383.824, 56.59375
1384.880, 148.7266
1385.937, 168.0703
1386.993, 265.8164
1388.049, 470.2578
1389.105, 349.6953
1390.161, 141.1445
1391.216, 338.5859
1392.272, 254.0391
1393.327, 403.4961
1394.382, 401.9531
1395.437, 236.4180
1396.492, 411.8906
1397.547, 278.3633
1398.601, 118.8398
1399.656, 325.3281
1400.710, 231.2930
1401.764, 80.79297
1402.818, 165.3008
1403.872, 180.2852
1404.925, 290.3398
1405.979, 322.4961
1407.032, 331.9258
1408.085, 280.1055
1409.139, 329.6836
1410.191, 23.55078
1411.244, 278.0820
1412.297, 399.6250
1413.349, 743.1758
1414.402, 188.7383
1415.454, 326.3125
1416.506, 179.8984
1417.558, 157.4062
1418.609, 402.9258
1419.661, 288.4609
1420.712, 306.0000
1421.764, 430.5547
1422.815, 473.1133
1423.866, 120.6875
1424.916, 163.2734
1425.967, 238.8672
1427.018, 256.6211
1428.068, 322.4414
1429.118, 317.4336
1430.168, 307.1445
1431.218, 282.1875
1432.268, 259.8672
1433.318, 205.5742
1434.367, 207.5117
1435.416, 254.6250
1436.465, 243.2227
1437.514, 396.0234
1438.563, 384.1562
1439.612, 451.1914
1440.661, 226.1133
1441.709, 211.0547
1442.757, 316.0430
1443.805, 189.0234
1444.853, 257.1719
1445.901, 392.5352
1446.949, 190.2109
1447.996, 125.7773
1449.044, 739.3438
1450.091, 432.2812
1451.138, 475.8203
1452.185, 222.3555
1453.232, 149.8906
1454.278, 464.4492
1455.325, 439.0156
1456.371, 275.5742
1457.417, 277.2734
1458.463, 345.6992
1459.509, 86.11719
1460.555, 252.5469
1461.601, 205.9648
1462.646, 235.3945
1463.691, 279.0586
1464.737, 395.4883
1465.782, 296.8984
1466.826, 337.3906
1467.871, 330.9570
1468.916, 289.7031
1469.960, 207.4766
1471.004, 511.2383
1472.048, 72.98047
1473.092, 235.7227
1474.136, 433.6484
1475.180, 180.2656
1476.223, 190.8828
1477.267, 149.4961
1478.310, 154.1172
1479.353, 191.7031
1480.396, 130.4102
1481.439, 188.1133
1482.481, 190.8242
1483.524, 232.5312
1484.566, 246.2383
1485.608, 262.9453
1486.650, 165.6797
1487.692, 101.4297
1488.734, 34.18750
1489.775, 277.0625
1490.817, 367.0547
1491.858, 40.20703
1492.899, 221.3633
1493.940, 67.46875
1494.981, 35.29297
1496.022, 56.90234
1497.062, 60.11328
1498.103, 247.3242
1499.143, 314.5469
1500.183, 144.7852
1501.223, 208.0273
1502.263, 60.28125
1503.302, 72.54297
1504.342, 128.8047
1505.381, 9.070313
1506.420, 231.3320
1507.459, 80.60156
1508.498, 150.8477
1509.537, 280.0859
1510.576, 103.6445
1511.614, 87.50391
1512.652, 279.2031
1513.691, 386.4492
1514.729, 413.9180
1515.767, 122.2266
1516.804, 242.9219
1517.842, 198.4102
1518.879, 147.1758
1519.917, 326.0508
1520.954, 81.01562
1521.991, 256.3125
1523.028, 264.0078
1524.064, 348.6953
1525.101, 267.1602
1526.137, 237.0469
1527.173, 373.3281
1528.210, 417.5820
1529.245, 317.2031
1530.281, 407.1875
1531.317, 157.2695
1532.352, 205.7812
1533.388, 372.0312
1534.423, 280.0977
1535.458, 373.1875
1536.493, 395.9297
1537.528, 98.58594
1538.562, 358.1133
1539.597, 376.9414
1540.631, 148.6523
1541.665, 368.8164
1542.700, 174.0977
1543.733, 134.6641
1544.767, 212.0898
1545.801, 167.8203
1546.834, 315.5820
1547.868, 278.4297
1548.901, 224.7812
1549.934, 243.2500
1550.967, 57.37500
1551.999, 250.5781
1553.032, 185.4844
1554.064, 249.1719
1555.097, 342.0742
1556.129, 211.5781
1557.161, 319.2148
1558.193, 60.38281
1559.224, 108.8672
1560.256, 124.7734
1561.287, 335.7070
1562.318, 80.75781
1563.350, 123.2969
1564.380, 293.2695
1565.411, 280.2852
1566.442, 347.4297
1567.472, 441.8867
1568.503, 2.398438
1569.533, 181.0508
1570.563, 0.0000000E+00
##END=



