##NAMES=Celestine
##RRUFFID=R050008
##IDEAL CHEMISTRY=SrS^6+^O_4_
##LOCALITY=Scofield Quarry, Maybee, Monroe County, Michigan, USA
##OWNER=RRUFF
##SOURCE=Eugene Schlepp
##DESCRIPTION=Pale blue tabular crystals
##STATUS=The identification of this mineral has been confirmed by X-ray diffraction and chemical analysis
##URL=rruff.info/R050008
##MEASURED CHEMISTRY=Sr_1.00_S_1.00_O_4_
##PIN_ID=M00310
##ORIENTATION=Laser parallel to -a* (-1 0 0). Fiducial mark perpendicular to laser is parallel to b [0 1 0]
50.167, 0.000
51.575, 17.192
52.984, 38.515
54.392, 69.312
55.799, 107.349
57.207, 151.544
58.614, 143.756
60.021, 136.527
61.428, 150.033
62.834, 165.513
64.240, 165.547
65.646, 172.792
67.052, 208.849
68.458, 160.725
69.863, 66.916
71.268, 69.153
72.673, 72.530
74.077, 46.958
75.481, 51.612
76.885, 58.445
78.289, 32.256
79.693, 17.949
81.096, 17.778
82.499, 40.008
83.902, 2.903
85.304, 19.353
86.706, 94.610
88.108, 202.710
89.510, 309.152
90.912, 265.369
92.313, 252.688
93.714, 232.438
95.115, 281.156
96.515, 273.889
97.916, 254.906
99.316, 271.459
100.715, 207.073
102.115, 195.244
103.514, 139.546
104.913, 116.135
106.312, 120.029
107.711, 106.056
109.109, 92.286
110.507, 63.038
111.905, 66.718
113.303, 44.325
114.700, 55.406
116.097, 48.553
117.494, 45.613
118.891, 65.061
120.287, 22.996
121.683, 38.760
123.079, 41.328
124.475, 40.767
125.870, 40.725
127.265, 51.457
128.660, 54.577
130.055, 71.236
131.449, 51.491
132.843, 26.783
134.237, 46.925
135.631, 22.438
137.024, 29.986
138.417, 46.231
139.810, 53.314
141.203, 46.755
142.596, 41.207
143.988, 43.059
145.380, 27.051
146.771, 5.027
148.163, 26.045
149.554, 0.167
150.945, 11.199
152.336, 11.067
153.726, 6.853
155.117, 11.928
156.507, 13.494
157.896, 14.810
159.286, 20.360
160.675, 26.202
162.064, 24.717
163.453, 16.213
164.842, 22.588
166.230, 53.984
167.618, 93.229
169.006, 109.608
170.393, 203.747
171.781, 226.019
173.168, 224.058
174.555, 187.059
175.941, 147.011
177.328, 78.131
178.714, 41.225
180.100, 55.331
181.485, 48.299
182.871, 16.225
184.256, 16.200
185.641, 2.163
187.025, 19.071
188.410, 8.881
189.794, 16.666
191.178, 1.527
192.562, 10.276
193.945, 2.007
195.328, 2.425
196.711, 5.205
198.094, 22.856
199.476, 23.479
200.859, 19.047
202.241, 25.737
203.623, 23.457
205.004, 14.055
206.385, 8.577
207.766, 10.824
209.147, 2.285
210.528, 5.773
211.908, 2.645
213.288, 23.878
214.668, 4.583
216.048, 6.961
217.427, 8.846
218.806, 7.448
220.185, 4.282
221.564, 2.906
222.942, 3.918
224.320, 15.798
225.698, 9.726
227.076, 10.774
228.453, 8.189
229.830, 7.048
231.207, 11.931
232.584, 9.654
233.960, 7.002
235.337, 3.932
236.713, 0.598
238.088, 0.151
239.464, 0.706
240.839, 19.707
242.214, 21.131
243.589, 21.497
244.964, 14.802
246.338, 13.897
247.712, 11.962
249.086, 5.056
250.459, 15.459
251.833, 32.450
253.206, 4.606
254.579, 10.748
255.951, 28.861
257.324, 18.951
258.696, 26.999
260.068, 38.051
261.439, 27.043
262.811, 17.011
264.182, 14.950
265.553, 41.863
266.924, 14.729
268.294, 20.562
269.665, 0.367
271.035, 28.157
272.404, 25.913
273.774, 22.645
275.143, 30.361
276.512, 28.020
277.881, 40.680
279.250, 39.130
280.618, 21.817
281.986, 35.357
283.354, 46.863
284.721, 34.428
286.089, 20.767
287.456, 45.174
288.823, 46.557
290.190, 35.920
291.556, 28.269
292.922, 44.650
294.288, 56.028
295.654, 54.909
297.019, 48.744
298.385, 58.864
299.750, 49.083
301.114, 47.118
302.479, 25.195
303.843, 30.328
305.207, 41.465
306.571, 28.564
307.935, 35.627
309.298, 39.682
310.661, 44.601
312.024, 41.115
313.387, 44.010
314.749, 27.277
316.111, 39.960
317.473, 33.638
318.835, 28.210
320.196, 34.899
321.558, 30.611
322.919, 29.339
324.279, 49.133
325.640, 32.970
327.000, 44.789
328.360, 31.517
329.720, 36.309
331.080, 31.275
332.439, 32.375
333.798, 37.485
335.157, 39.570
336.516, 52.648
337.874, 51.098
339.232, 37.786
340.590, 50.853
341.948, 42.877
343.305, 36.742
344.662, 48.707
346.019, 32.592
347.376, 40.280
348.733, 49.965
350.089, 25.440
351.445, 30.142
352.801, 21.734
354.156, 21.412
355.512, 20.643
356.867, 42.248
358.222, 28.457
359.576, 50.644
360.931, 29.176
362.285, 18.893
363.639, 25.613
364.992, 31.295
366.346, 26.033
367.699, 32.748
369.052, 40.382
370.405, 35.117
371.757, 24.656
373.110, 27.892
374.462, 26.913
375.814, 21.408
377.165, 29.302
378.516, 26.831
379.868, 39.390
381.218, 14.489
382.569, 16.033
383.920, 26.135
385.270, 17.594
386.620, 18.697
387.969, 13.043
389.319, 24.767
390.668, 7.409
392.017, 19.887
393.366, 2.342
394.714, 31.835
396.063, 6.701
397.411, 23.800
398.759, 51.184
400.106, 26.099
401.454, 18.690
402.801, 12.914
404.148, 8.423
405.495, 17.937
406.841, 3.494
408.187, 29.947
409.533, 35.388
410.879, 28.809
412.224, 28.201
413.570, 28.684
414.915, 20.237
416.260, 16.619
417.604, 17.048
418.949, 16.569
420.293, 23.431
421.637, 11.934
422.980, 30.624
424.324, 19.119
425.667, 25.566
427.010, 17.003
428.353, 50.549
429.695, 49.978
431.037, 32.427
432.379, 14.727
433.721, 26.201
435.063, 45.661
436.404, 57.105
437.745, 62.577
439.086, 62.036
440.427, 82.545
441.767, 113.046
443.108, 121.471
444.448, 145.950
445.787, 177.475
447.127, 255.945
448.466, 323.356
449.805, 512.868
451.144, 729.383
452.482, 1222.856
453.821, 1853.295
455.159, 2545.800
456.497, 2959.352
457.834, 2195.896
459.172, 1614.414
460.509, 1155.974
461.846, 796.491
463.183, 699.001
464.519, 496.418
465.856, 399.857
467.192, 287.341
468.527, 214.771
469.863, 176.231
471.198, 127.707
472.534, 111.206
473.868, 93.693
475.203, 56.193
476.538, 69.628
477.872, 67.119
479.206, 41.586
480.540, 39.033
481.873, 36.510
483.206, 39.971
484.539, 14.428
485.872, 19.969
487.205, 43.444
488.537, 19.971
489.869, 31.444
491.201, 11.939
492.533, 8.412
493.864, 1.890
495.196, 22.388
496.527, 21.895
497.857, 23.450
499.188, 34.003
500.518, 3.503
501.848, 12.054
503.178, 19.575
504.508, 1.929
505.837, 23.617
507.166, 10.096
508.495, 12.608
509.824, 1.846
511.153, 23.609
512.481, 7.085
513.809, 15.528
515.137, 28.971
516.464, 21.416
517.792, 13.953
519.119, 15.438
520.446, 13.060
521.772, 9.863
523.099, 6.460
524.425, 11.587
525.751, 1.100
527.077, 14.596
528.402, 24.123
529.728, 27.684
531.053, 15.235
532.377, 20.741
533.702, 11.267
535.027, 8.796
536.351, 1.306
537.675, 17.865
538.998, 28.423
540.322, 9.984
541.645, 26.529
542.968, 5.051
544.291, 7.621
545.613, 18.158
546.936, 9.889
548.258, 0.564
549.580, 9.031
550.902, 10.919
552.223, 1.507
553.544, 0.024
554.865, 18.647
556.186, 3.918
557.507, 7.703
558.827, 6.333
560.147, 0.872
561.467, 20.740
562.786, 17.542
564.106, 16.357
565.425, 2.642
566.744, 14.982
568.063, 20.618
569.381, 0.256
570.700, 18.894
572.018, 6.536
573.335, 32.176
574.653, 19.812
575.970, 26.456
577.288, 3.083
578.604, 12.275
579.921, 27.363
581.238, 6.031
582.554, 33.923
583.870, 34.560
585.186, 26.633
586.501, 39.664
587.817, 34.349
589.132, 37.045
590.447, 48.686
591.761, 75.315
593.076, 62.936
594.390, 38.603
595.704, 44.245
597.018, 67.936
598.331, 50.585
599.645, 71.311
600.958, 62.955
602.271, 74.599
603.583, 94.243
604.896, 87.888
606.208, 111.544
607.520, 121.189
608.832, 140.927
610.143, 195.298
611.455, 219.968
612.766, 286.614
614.077, 347.260
615.387, 559.912
616.698, 797.558
618.008, 1232.203
619.318, 1911.895
620.628, 2158.540
621.937, 2307.185
623.247, 1801.831
624.556, 1403.478
625.865, 1157.124
627.173, 900.771
628.482, 755.418
629.790, 536.182
631.098, 443.828
632.405, 391.475
633.713, 353.122
635.020, 439.770
636.327, 491.417
637.634, 686.064
638.941, 988.734
640.247, 1093.381
641.553, 1104.029
642.859, 680.677
644.165, 408.324
645.471, 270.438
646.776, 146.085
648.081, 129.733
649.386, 75.398
650.691, 54.045
651.995, 42.674
653.299, 46.322
654.603, 55.049
655.907, 56.695
657.210, 16.582
658.514, 21.222
659.817, 15.867
661.120, 13.513
662.422, 31.126
663.725, 10.771
665.027, 28.416
666.329, 9.060
667.630, 23.662
668.932, 18.307
670.233, 18.951
671.534, 13.595
672.835, 8.277
674.136, 9.927
675.436, 27.571
676.737, 1.785
678.036, 9.224
679.336, 2.134
680.636, 20.940
681.935, 11.919
683.234, 10.430
684.533, 31.473
685.832, 7.113
687.130, 1.752
688.428, 10.432
689.726, 14.353
691.024, 11.073
692.322, 8.184
693.619, 7.941
694.916, 9.058
696.213, 6.331
697.510, 17.087
698.806, 6.987
700.102, 6.620
701.398, 17.256
702.694, 2.038
703.990, 5.058
705.285, 18.678
706.580, 4.694
707.875, 8.510
709.170, 17.132
710.464, 23.089
711.758, 1.832
713.052, 17.552
714.346, 20.171
715.640, 0.139
716.933, 8.464
718.226, 0.922
719.519, 1.410
720.812, 3.704
722.105, 1.851
723.397, 11.452
724.689, 15.052
725.981, 18.650
727.272, 8.247
728.564, 25.843
729.855, 12.437
731.146, 4.030
732.437, 14.622
733.727, 5.213
735.017, 13.415
736.308, 18.003
737.597, 2.557
738.887, 21.026
740.176, 4.393
741.466, 3.817
742.755, 2.632
744.043, 2.324
745.332, 7.892
746.620, 9.459
747.908, 7.024
749.196, 11.588
750.484, 17.151
751.771, 2.712
753.059, 6.272
754.346, 1.830
755.633, 17.386
756.919, 10.941
758.206, 21.494
759.492, 13.047
760.778, 4.598
762.063, 13.147
763.349, 1.696
764.634, 8.758
765.919, 3.780
767.204, 12.317
768.489, 21.853
769.773, 5.388
771.057, 42.921
772.341, 13.453
773.625, 2.984
774.909, 38.513
776.192, 12.040
777.475, 23.567
778.758, 34.092
780.041, 18.616
781.323, 10.139
782.605, 10.660
783.887, 1.180
785.169, 22.698
786.451, 20.215
787.732, 26.731
789.013, 26.621
790.294, 25.758
791.575, 22.270
792.856, 3.780
794.136, 10.290
795.416, 10.798
796.696, 12.304
797.976, 21.810
799.255, 4.685
800.534, 9.814
801.813, 14.312
803.092, 3.808
804.371, 32.304
805.649, 7.798
806.927, 11.291
808.205, 1.783
809.483, 15.273
810.760, 1.238
812.037, 17.248
813.315, 12.733
814.591, 26.216
815.868, 3.698
817.144, 38.180
818.421, 17.660
819.697, 9.139
820.972, 34.617
822.248, 16.094
823.523, 28.570
824.798, 17.045
826.073, 2.520
827.348, 3.992
828.623, 5.464
829.897, 11.934
831.171, 3.665
832.445, 21.800
833.718, 4.822
834.992, 3.363
836.265, 11.907
837.538, 4.460
838.811, 5.983
840.083, 12.425
841.356, 1.855
842.628, 2.705
843.900, 0.731
845.171, 5.835
846.443, 0.059
847.714, 21.978
848.985, 2.436
850.256, 11.848
851.527, 2.739
852.797, 18.671
854.067, 3.080
855.337, 0.488
856.607, 6.289
857.876, 10.103
859.146, 16.504
860.415, 8.452
861.684, 3.942
862.953, 4.664
864.221, 17.274
865.489, 1.951
866.757, 13.427
868.025, 0.196
869.293, 18.017
870.560, 18.389
871.828, 9.552
873.095, 9.683
874.361, 13.669
875.628, 23.973
876.894, 10.346
878.160, 19.104
879.426, 6.092
880.692, 21.461
881.958, 14.833
883.223, 13.206
884.488, 9.559
885.753, 5.932
887.018, 6.289
888.282, 16.664
889.546, 19.038
890.810, 22.244
892.074, 34.470
893.338, 26.410
894.601, 19.384
895.864, 17.713
897.127, 31.031
898.390, 16.405
899.652, 28.780
900.915, 29.152
902.177, 33.527
903.439, 35.904
904.700, 39.234
905.962, 31.605
907.223, 16.900
908.484, 29.278
909.745, 25.656
911.006, 36.034
912.266, 34.571
913.526, 21.782
914.786, 29.163
916.046, 26.453
917.306, 17.108
918.565, 8.466
919.824, 26.849
921.083, 41.232
922.342, 37.609
923.600, 54.993
924.859, 44.378
926.117, 18.718
927.375, 34.103
928.632, 27.490
929.890, 38.876
931.147, 59.263
932.404, 42.651
933.661, 59.040
934.918, 34.429
936.174, 31.702
937.430, 50.093
938.686, 35.484
939.942, 54.876
941.198, 57.268
942.453, 51.662
943.708, 35.059
944.963, 35.435
946.218, 54.833
947.472, 65.232
948.727, 30.632
949.981, 79.033
951.235, 49.969
952.488, 64.372
953.742, 66.776
954.995, 61.163
956.248, 68.568
957.501, 70.975
958.754, 81.383
960.006, 92.711
961.258, 83.121
962.510, 95.291
963.762, 85.703
965.014, 109.116
966.265, 97.531
967.516, 99.932
968.767, 136.349
970.018, 126.767
971.269, 107.186
972.519, 175.607
973.769, 191.028
975.019, 275.451
976.269, 301.875
977.518, 260.263
978.767, 283.684
980.017, 286.112
981.265, 316.543
982.514, 391.686
983.762, 392.120
985.011, 510.123
986.259, 527.222
987.507, 577.788
988.754, 743.885
990.002, 841.327
991.249, 1115.770
992.496, 1454.174
993.743, 1921.338
994.989, 3029.705
996.236, 4443.749
997.482, 8833.082
998.728, 19816.055
999.974, 37585.488
1001.219, 50044.945
1002.464, 32094.143
1003.710, 14453.604
1004.954, 7913.067
1006.199, 4134.458
1007.444, 2794.460
1008.688, 1993.933
1009.932, 1421.407
1011.176, 1189.305
1012.420, 880.785
1013.663, 761.931
1014.906, 655.293
1016.149, 537.606
1017.392, 500.095
1018.635, 437.514
1019.877, 372.009
1021.120, 364.505
1022.362, 317.005
1023.603, 280.509
1024.845, 283.020
1026.086, 234.533
1027.328, 222.049
1028.569, 210.616
1029.809, 182.138
1031.050, 183.662
1032.290, 154.615
1033.530, 169.146
1034.770, 168.683
1036.010, 144.222
1037.250, 131.764
1038.489, 137.308
1039.728, 132.854
1040.967, 122.405
1042.206, 123.958
1043.444, 130.516
1044.683, 125.082
1045.921, 127.674
1047.159, 149.353
1048.396, 97.970
1049.634, 111.548
1050.871, 75.130
1052.108, 91.069
1053.345, 99.656
1054.582, 102.249
1055.818, 84.843
1057.054, 78.441
1058.290, 53.051
1059.526, 73.657
1060.762, 76.275
1061.997, 52.309
1063.232, 66.922
1064.467, 60.537
1065.702, 62.155
1066.937, 60.778
1068.171, 45.404
1069.405, 59.032
1070.639, 45.663
1071.873, 38.297
1073.107, 39.933
1074.340, 27.573
1075.573, 46.216
1076.806, 35.862
1078.039, 47.509
1079.272, 50.160
1080.504, 34.812
1081.736, 57.467
1082.968, 78.125
1084.200, 55.785
1085.431, 75.449
1086.663, 97.114
1087.894, 118.782
1089.125, 176.453
1090.355, 194.126
1091.586, 278.371
1092.816, 423.049
1094.046, 488.729
1095.276, 473.411
1096.506, 356.096
1097.735, 244.783
1098.965, 215.472
1100.194, 152.166
1101.423, 150.865
1102.651, 105.565
1103.880, 127.269
1105.108, 143.976
1106.336, 169.686
1107.564, 206.398
1108.792, 248.113
1110.019, 243.830
1111.246, 244.270
1112.473, 213.278
1113.700, 189.008
1114.927, 150.750
1116.153, 89.485
1117.380, 66.221
1118.606, 71.962
1119.831, 47.704
1121.057, 84.449
1122.283, 63.197
1123.508, 50.947
1124.733, 22.699
1125.958, 18.454
1127.182, 4.211
1128.407, 31.268
1129.631, 4.970
1130.855, 23.795
1132.079, 20.562
1133.302, 6.334
1134.526, 21.109
1135.749, 4.109
1136.972, 19.676
1138.195, 21.464
1139.417, 8.253
1140.640, 23.045
1141.862, 14.840
1143.084, 4.362
1144.305, 14.447
1145.527, 14.251
1146.748, 33.064
1147.970, 44.092
1149.191, 54.083
1150.411, 71.729
1151.632, 77.551
1152.852, 93.375
1154.072, 103.203
1155.292, 132.396
1156.512, 191.081
1157.732, 202.915
1158.951, 229.755
1160.170, 279.596
1161.389, 231.452
1162.608, 223.303
1163.826, 207.157
1165.045, 124.013
1166.263, 136.871
1167.481, 113.731
1168.699, 72.593
1169.916, 89.462
1171.134, 39.143
1172.351, 27.009
1173.568, 62.877
1174.784, 3.023
1176.001, 37.847
1177.217, 27.816
1178.433, 13.036
1179.649, 17.835
1180.865, 25.649
1182.081, 14.522
1183.296, 31.443
1184.511, 9.319
1185.726, 6.196
1186.941, 13.119
1188.155, 8.115
1189.370, 2.996
1190.584, 1.758
1191.798, 1.456
1193.011, 4.475
1194.225, 2.164
1195.438, 6.721
1196.651, 13.130
1197.864, 9.983
1199.077, 16.901
1200.290, 9.370
1201.502, 4.256
1202.714, 25.143
1203.926, 0.270
1205.138, 15.618
1206.349, 0.476
1207.561, 10.587
1208.772, 32.300
1209.983, 2.201
1211.194, 13.092
1212.404, 24.981
1213.614, 7.870
1214.825, 36.760
1216.034, 48.661
1217.244, 1.648
1218.454, 23.539
1219.663, 20.880
1220.872, 18.817
1222.081, 24.122
1223.290, 33.607
1224.498, 13.500
1225.707, 25.393
1226.915, 5.314
1228.123, 42.208
1229.331, 15.216
1230.538, 10.110
1231.746, 48.005
1232.953, 14.917
1234.160, 27.818
1235.366, 18.714
1236.573, 11.390
1237.779, 9.501
1238.986, 24.392
1240.192, 19.285
1241.397, 30.178
1242.603, 14.073
1243.808, 29.996
1245.013, 6.893
1246.218, 10.348
1247.423, 30.247
1248.628, 36.167
1249.832, 48.411
1251.036, 24.312
1252.240, 19.214
1253.444, 12.238
1254.648, 47.142
1255.851, 19.044
1257.054, 24.817
1258.257, 8.721
1259.460, 0.649
1260.663, 18.554
1261.865, 4.459
1263.067, 14.800
1264.269, 22.706
1265.471, 15.612
1266.673, 20.548
1267.874, 16.455
1269.075, 6.386
1270.276, 12.332
1271.477, 15.239
1272.678, 3.849
1273.878, 45.092
1275.078, 13.923
1276.278, 25.848
1277.478, 5.775
1278.678, 10.698
1279.877, 25.712
1281.077, 25.586
1282.276, 27.487
1283.475, 46.380
1284.673, 15.274
1285.872, 35.166
1287.070, 46.053
1288.268, 2.914
1289.466, 6.793
1290.664, 8.712
1291.861, 1.385
1293.058, 8.039
1294.255, 11.353
1295.452, 15.222
1296.649, 26.275
1297.846, 23.142
1299.042, 0.968
1300.238, 52.897
1301.434, 17.757
1302.630, 38.617
1303.825, 19.476
1305.020, 5.335
1306.216, 43.314
1307.411, 13.169
1308.605, 21.025
1309.800, 31.900
1310.994, 16.754
1312.188, 40.607
1313.382, 8.459
1314.576, 9.695
1315.770, 33.143
1316.963, 18.980
1318.156, 0.185
1319.349, 32.591
1320.542, 2.413
1321.735, 0.767
1322.927, 24.620
1324.119, 11.569
1325.311, 34.241
1326.503, 4.043
1327.695, 12.843
1328.886, 20.640
1330.077, 4.435
1331.268, 2.226
1332.459, 29.014
1333.650, 10.201
1334.840, 13.579
1336.030, 33.374
1337.220, 2.960
1338.410, 23.769
1339.600, 4.465
1340.789, 15.296
1341.979, 20.701
1343.168, 5.543
1344.357, 36.207
1345.545, 32.994
1346.734, 7.261
1347.922, 47.470
1349.110, 10.206
1350.298, 14.929
1351.486, 37.277
1352.674, 11.006
1353.861, 13.733
1355.048, 43.592
1356.235, 22.314
1357.422, 44.035
1358.608, 12.752
1359.795, 3.467
1360.981, 29.180
1362.167, 3.106
1363.353, 6.600
1364.538, 29.304
1365.724, 15.006
1366.909, 34.705
1368.094, 39.395
1369.279, 10.083
1370.463, 26.769
1371.648, 3.542
1372.832, 28.222
1374.016, 20.900
1375.200, 13.754
1376.384, 16.417
1377.567, 34.130
1378.750, 23.743
1379.933, 30.620
1381.116, 27.523
1382.299, 25.426
1383.481, 33.328
1384.664, 37.228
1385.846, 12.123
1387.028, 49.015
1388.210, 4.094
1389.391, 21.795
1390.572, 14.675
1391.754, 0.459
1392.935, 31.417
1394.115, 39.289
1395.296, 5.159
1396.476, 42.027
1397.656, 33.554
1398.837, 8.584
1400.016, 32.276
1401.196, 16.134
1402.375, 42.991
1403.555, 38.846
1404.734, 1.301
1405.912, 64.542
1407.091, 45.129
1408.270, 15.975
1409.448, 43.819
1410.626, 17.387
1411.804, 14.224
1412.982, 47.060
1414.159, 22.878
1415.336, 15.710
1416.514, 45.540
1417.690, 20.361
1418.867, 18.061
1420.044, 18.552
1421.220, 7.223
1422.396, 15.732
1423.572, 21.081
1424.748, 25.803
1425.924, 28.523
1427.099, 32.133
1428.274, 35.575
1429.449, 11.681
1430.624, 21.617
1431.799, 12.364
1432.973, 14.174
1434.147, 27.770
1435.322, 44.458
1436.495, 44.176
1437.669, 0.865
1438.843, 35.582
1440.016, 15.279
1441.189, 40.822
1442.362, 54.646
1443.535, 42.333
1444.707, 37.028
1445.880, 38.671
1447.052, 3.146
1448.224, 52.802
1449.396, 37.475
1450.567, 16.163
1451.739, 51.853
1452.910, 27.533
1454.081, 23.146
1455.252, 62.606
1456.422, 20.435
1457.593, 44.039
1458.763, 56.354
1459.933, 37.917
1461.103, 47.391
1462.273, 57.905
1463.442, 19.334
1464.611, 56.725
1465.781, 16.112
1466.949, 48.443
1468.118, 49.747
1469.287, 25.085
1470.455, 50.351
1471.623, 33.314
1472.791, 47.684
1473.959, 36.059
1475.127, 35.326
1476.294, 6.611
1477.461, 62.945
1478.628, 33.367
1479.795, 22.129
1480.962, 37.414
1482.128, 18.788
1483.295, 43.140
1484.461, 54.999
1485.627, 6.210
1486.792, 18.473
1487.958, 40.729
1489.123, 26.009
1490.288, 33.314
1491.453, 5.641
1492.618, 31.001
1493.783, 56.327
1494.947, 1.317
1496.111, 38.052
1497.275, 49.427
1498.439, 20.537
1499.603, 32.903
1500.766, 35.305
1501.930, 14.710
1503.093, 52.830
1504.256, 28.278
1505.418, 22.748
1506.581, 33.814
1507.743, 26.759
1508.905, 27.077
1510.067, 40.403
1511.229, 1.633
1512.391, 36.905
1513.552, 32.118
1514.713, 0.401
1515.874, 29.104
1517.035, 6.584
1518.196, 4.527
1519.356, 0.000
##END=



