##NAMES=Cerussite
##RRUFFID=R050023
##IDEAL CHEMISTRY=Pb^2+^CO_3_
##LOCALITY=Mammoth - St Anthony mine, Tiger, Pinal County, Arizona, USA
##OWNER=RRUFF
##SOURCE=Eugene Schlepp
##DESCRIPTION=Prismatic white single crystals
##STATUS=The identification of this mineral has been confirmed by X-ray diffraction and chemical analysis
##URL=rruff.info/R050023
##MEASURED CHEMISTRY=Pb_1.00_CO_3_ ; CO_2_ not measured but estimated by difference and stoichiometry
##PIN_ID=L00220
##ORIENTATION=Laser parallel to b* (0 1 0). Fiducial mark perpendicular to laser is parallel to c [0 0 1]
51.717, 0.000
53.126, 7.885
54.534, 47.566
55.942, 26.872
57.350, 87.732
58.758, 57.640
60.165, 58.429
61.572, 21.255
62.979, 16.385
64.386, 2.182
65.792, 3.010
67.198, 28.690
68.604, 32.177
70.010, 93.365
71.415, 173.178
72.820, 196.559
74.225, 249.458
75.630, 254.827
77.034, 281.624
78.438, 314.812
79.842, 346.357
81.246, 375.227
82.649, 423.396
84.053, 471.084
85.455, 546.537
86.858, 589.468
88.260, 677.618
89.663, 751.978
91.065, 886.539
92.466, 1019.294
93.868, 1183.238
95.269, 1412.361
96.670, 1633.648
98.070, 1929.082
99.471, 2149.652
100.871, 2458.350
102.271, 2588.163
103.670, 2606.083
105.070, 2437.107
106.469, 2219.223
107.868, 2019.428
109.267, 1859.716
110.665, 1824.083
112.063, 1719.523
113.461, 1777.034
114.859, 1775.610
116.256, 1756.248
117.653, 1863.946
119.050, 1859.699
120.447, 2130.510
121.843, 2189.377
123.240, 2558.297
124.636, 2747.301
126.031, 3117.402
127.427, 3408.596
128.822, 3601.839
130.217, 3920.172
131.612, 3891.586
133.006, 3797.106
134.400, 3442.733
135.794, 3184.432
137.188, 2840.167
138.581, 2453.922
139.975, 2281.674
141.368, 1994.393
142.760, 1928.107
144.153, 1726.846
145.545, 1683.609
146.937, 1555.373
148.329, 1502.137
149.720, 1438.906
151.112, 1334.680
152.503, 1279.460
153.893, 1185.247
155.284, 1115.045
156.674, 1087.849
158.064, 967.660
159.454, 954.478
160.843, 893.303
162.233, 869.137
163.622, 839.063
165.011, 788.833
166.399, 802.691
167.787, 799.557
169.175, 827.429
170.563, 776.309
171.951, 804.195
173.338, 810.087
174.725, 830.985
176.112, 842.888
177.499, 798.799
178.885, 915.714
180.271, 859.633
181.657, 927.557
183.043, 929.485
184.428, 976.415
185.813, 1001.347
187.198, 992.281
188.583, 1133.646
189.967, 1084.590
191.351, 1232.525
192.735, 1287.653
194.119, 1411.672
195.502, 1549.288
196.885, 1549.265
198.268, 1744.766
199.651, 1837.184
201.033, 2015.359
202.415, 2154.682
203.797, 2305.033
205.179, 2535.185
206.561, 2626.092
207.942, 2923.818
209.323, 2991.973
210.703, 3257.484
212.084, 3357.606
213.464, 3408.356
214.844, 3415.793
216.224, 3162.860
217.603, 3115.762
218.983, 2786.027
220.362, 2622.848
221.741, 2369.248
223.119, 2043.211
224.497, 1947.161
225.875, 1666.500
227.253, 1588.526
228.631, 1425.068
230.008, 1313.599
231.385, 1224.060
232.762, 1094.659
234.139, 1097.005
235.515, 966.399
236.891, 947.829
238.267, 890.454
239.643, 833.249
241.018, 813.885
242.393, 710.588
243.768, 729.322
245.143, 657.049
246.517, 657.122
247.891, 580.899
249.265, 571.715
250.639, 533.501
252.012, 506.388
253.386, 483.258
254.759, 441.408
256.131, 448.428
257.504, 391.333
258.876, 362.227
260.248, 373.167
261.620, 343.031
262.991, 344.051
264.363, 297.932
265.734, 299.907
267.104, 277.845
268.475, 208.753
269.845, 250.762
271.215, 225.898
272.585, 211.892
273.955, 224.943
275.324, 212.870
276.693, 191.885
278.062, 141.868
279.431, 172.842
280.799, 154.763
282.167, 132.793
283.535, 145.771
284.903, 151.762
286.270, 134.772
287.638, 123.749
289.005, 123.729
290.371, 125.702
291.738, 97.621
293.104, 80.593
294.470, 74.607
295.836, 81.537
297.201, 81.449
298.567, 71.504
299.932, 31.536
301.296, 43.492
302.661, 40.417
304.025, 32.411
305.389, 58.298
306.753, 55.247
308.117, 16.148
309.480, 27.135
310.843, 22.024
312.206, 23.894
313.569, 30.752
314.931, 24.606
316.293, 26.454
317.655, 6.297
319.017, 22.135
320.378, 38.967
321.740, 17.794
323.101, 11.376
324.461, 18.438
325.822, 4.246
327.182, 8.048
328.542, 9.845
329.902, 0.635
331.261, 3.581
332.621, 1.197
333.980, 3.981
335.339, 9.745
336.697, 12.497
338.056, 2.748
339.414, 28.955
340.772, 4.803
342.129, 23.466
343.487, 5.755
344.844, 3.053
346.201, 20.294
347.557, 13.564
348.914, 4.171
350.270, 5.166
351.626, 5.457
352.982, 8.199
354.337, 1.167
355.693, 1.459
357.048, 13.858
358.402, 12.242
359.757, 6.636
361.111, 16.009
362.465, 2.556
363.819, 14.806
365.173, 13.196
366.526, 4.650
367.879, 15.047
369.232, 11.482
370.585, 12.451
371.937, 23.359
373.290, 16.524
374.642, 13.983
375.993, 21.582
377.345, 2.620
378.696, 22.260
380.047, 1.113
381.398, 8.555
382.748, 34.180
384.099, 4.155
385.449, 21.553
386.799, 8.302
388.148, 2.982
389.497, 6.725
390.847, 2.541
392.196, 4.270
393.544, 7.618
394.893, 4.804
396.241, 5.940
397.589, 21.717
398.936, 5.532
400.284, 14.679
401.631, 7.813
402.978, 25.913
404.325, 18.039
405.672, 18.165
407.018, 25.284
408.364, 5.823
409.710, 25.923
411.055, 22.033
412.401, 34.037
413.746, 18.079
415.091, 23.141
416.435, 8.157
417.780, 13.141
419.124, 26.115
420.468, 32.105
421.812, 24.039
423.155, 45.061
424.498, 17.987
425.842, 45.995
427.184, 25.957
428.527, 36.871
429.869, 45.747
431.211, 24.664
432.553, 15.516
433.895, 30.363
435.236, 22.263
436.577, 49.149
437.918, 28.988
439.259, 37.792
440.599, 40.699
441.940, 54.475
443.280, 29.366
444.619, 42.123
445.959, 39.867
447.298, 35.631
448.637, 44.832
449.976, 44.656
451.315, 46.458
452.653, 63.187
453.991, 46.869
455.329, 36.579
456.667, 56.246
458.004, 65.892
459.341, 28.527
460.678, 31.151
462.015, 47.763
463.352, 54.364
464.688, 36.954
466.024, 66.533
467.360, 46.101
468.695, 56.658
470.031, 35.205
471.366, 57.740
472.701, 61.264
474.035, 65.777
475.370, 66.280
476.704, 70.785
478.038, 67.254
479.372, 72.725
480.705, 72.185
482.038, 71.187
483.371, 62.075
484.704, 68.150
486.037, 67.600
487.369, 65.006
488.701, 73.487
490.033, 88.875
491.365, 74.280
492.696, 87.522
494.027, 61.838
495.358, 67.214
496.689, 81.557
498.019, 75.401
499.350, 52.637
500.680, 56.329
502.009, 62.223
503.339, 73.225
504.668, 67.213
505.997, 47.315
507.326, 50.381
508.655, 45.834
509.983, 62.997
511.311, 47.873
512.639, 57.698
513.967, 60.837
515.295, 65.851
516.622, 44.936
517.949, 57.108
519.276, 55.350
520.602, 44.914
521.929, 53.859
523.255, 33.876
524.581, 33.837
525.906, 44.869
527.232, 27.409
528.557, 32.268
529.882, 33.322
531.207, 19.288
532.531, 6.541
533.855, 17.190
535.179, 38.972
536.503, 0.284
537.827, 34.772
539.150, 24.055
540.473, 28.725
541.796, 15.764
543.119, 15.148
544.441, 23.882
545.764, 27.014
547.086, 14.935
548.407, 11.562
549.729, 13.572
551.050, 2.862
552.371, 4.569
553.692, 28.771
555.013, 10.329
556.333, 13.552
557.653, 15.442
558.973, 6.331
560.293, 21.051
561.612, 26.628
562.932, 18.389
564.251, 16.104
565.569, 15.808
566.888, 3.463
568.206, 14.934
569.524, 10.315
570.842, 11.049
572.160, 22.048
573.477, 14.682
574.795, 23.343
576.112, 27.732
577.428, 27.258
578.745, 20.905
580.061, 32.569
581.377, 8.190
582.693, 28.891
584.009, 6.439
585.324, 15.126
586.639, 23.721
587.954, 30.357
589.269, 18.024
590.583, 31.589
591.897, 29.027
593.212, 13.605
594.525, 14.122
595.839, 22.762
597.152, 28.309
598.465, 2.890
599.778, 43.475
601.091, 2.109
602.403, 28.630
603.716, 38.197
605.028, 21.750
606.339, 4.725
607.651, 2.825
608.962, 4.369
610.273, 2.325
611.584, 27.506
612.895, 18.040
614.205, 25.524
615.515, 49.083
616.825, 45.652
618.135, 61.069
619.444, 63.715
620.754, 53.997
622.063, 70.514
623.372, 49.953
624.680, 59.489
625.989, 66.952
627.297, 50.454
628.605, 42.860
629.912, 59.354
631.220, 72.856
632.527, 62.360
633.834, 85.858
635.141, 53.352
636.447, 63.840
637.754, 85.324
639.060, 56.803
640.366, 47.278
641.671, 36.739
642.977, 16.206
644.282, 21.704
645.587, 3.161
646.892, 27.060
648.196, 7.507
649.501, 32.949
650.805, 26.387
652.109, 7.852
653.412, 18.403
654.716, 0.173
656.019, 9.249
657.322, 10.615
658.625, 9.994
659.927, 14.089
661.230, 20.865
662.532, 16.280
663.834, 10.707
665.135, 11.072
666.437, 42.420
667.738, 88.829
669.039, 110.180
670.340, 194.571
671.640, 387.971
672.940, 819.370
674.241, 1066.698
675.540, 1047.082
676.840, 494.461
678.139, 244.797
679.439, 190.177
680.738, 271.471
682.036, 394.770
683.335, 352.120
684.633, 198.398
685.931, 104.703
687.229, 39.018
688.527, 37.257
689.824, 23.233
691.121, 26.485
692.418, 8.855
693.715, 2.640
695.012, 1.996
696.308, 3.334
697.604, 3.683
698.900, 8.978
700.195, 9.293
701.491, 8.744
702.786, 14.029
704.081, 6.048
705.376, 5.674
706.670, 5.003
707.964, 7.131
709.259, 1.104
710.552, 16.526
711.846, 7.161
713.139, 23.201
714.433, 12.549
715.726, 13.857
717.018, 18.232
718.311, 34.631
719.603, 39.010
720.895, 58.362
722.187, 62.712
723.479, 74.717
724.770, 81.589
726.061, 79.389
727.352, 87.368
728.643, 89.740
729.934, 81.232
731.224, 58.608
732.514, 67.003
733.804, 51.397
735.094, 56.763
736.383, 40.175
737.672, 44.814
738.961, 33.211
740.250, 44.548
741.539, 21.886
742.827, 32.256
744.115, 52.942
745.403, 35.302
746.691, 12.747
747.978, 24.141
749.265, 18.482
750.552, 39.852
751.839, 23.257
753.126, 26.727
754.412, 36.020
755.698, 37.415
756.984, 26.683
758.270, 38.204
759.555, 12.464
760.840, 43.824
762.125, 23.735
763.410, 12.010
764.695, 39.444
765.979, 34.791
767.263, 23.464
768.547, 48.807
769.831, 37.181
771.114, 28.564
772.398, 46.947
773.681, 26.328
774.964, 34.722
776.246, 34.103
777.529, 21.482
778.811, 36.861
780.093, 43.239
781.375, 36.617
782.656, 37.993
783.937, 50.369
785.219, 35.744
786.499, 27.119
787.780, 31.492
789.060, 22.909
790.341, 27.237
791.621, 22.608
792.901, 16.257
794.180, 22.626
795.459, 27.995
796.739, 33.363
798.017, 3.709
799.296, 29.068
800.575, 7.650
801.853, 28.711
803.131, 30.006
804.409, 13.366
805.686, 1.725
806.964, 1.978
808.241, 15.362
809.518, 26.619
810.795, 18.921
812.071, 30.268
813.347, 1.054
814.623, 15.339
815.899, 23.793
817.175, 0.789
818.450, 19.521
819.726, 21.856
821.001, 41.207
822.275, 57.558
823.550, 58.908
824.824, 75.258
826.098, 44.636
827.372, 26.985
828.646, 59.333
829.920, 42.681
831.193, 127.029
832.466, 152.376
833.739, 330.728
835.011, 678.074
836.284, 1132.453
837.556, 1063.318
838.828, 1496.145
840.100, 921.490
841.371, 586.836
842.642, 297.181
843.914, 180.528
845.184, 138.875
846.455, 69.189
847.726, 80.482
848.996, 61.722
850.266, 69.018
851.536, 44.315
852.805, 36.636
854.075, 8.957
855.344, 44.277
856.613, 27.618
857.881, 29.926
859.150, 20.238
860.418, 28.547
861.686, 46.573
862.954, 2.870
864.222, 10.220
865.489, 2.248
866.756, 27.598
868.023, 11.950
869.290, 21.306
870.557, 21.662
871.823, 7.021
873.089, 17.387
874.355, 35.752
875.621, 0.884
876.886, 12.482
878.152, 27.847
879.417, 8.789
880.682, 24.570
881.946, 2.071
883.211, 29.289
884.475, 11.650
885.739, 25.010
887.003, 12.372
888.266, 11.733
889.530, 4.906
890.793, 32.454
892.056, 2.815
893.318, 14.179
894.581, 15.451
895.843, 4.091
897.105, 8.266
898.367, 0.630
899.629, -1.054
900.890, 8.358
902.152, 1.728
903.413, 2.096
904.673, 16.537
905.934, 6.820
907.194, 11.177
908.454, 18.532
909.714, 21.888
910.974, 25.277
912.234, 14.594
913.493, 16.950
914.752, 15.306
916.011, 17.341
917.270, 27.005
918.528, 3.651
919.786, 30.691
921.044, 16.031
922.302, 25.371
923.560, 18.709
924.817, 25.047
926.074, 8.384
927.331, 16.719
928.588, 13.054
929.844, 19.388
931.101, 36.721
932.357, 40.053
933.613, 13.383
934.868, 35.713
936.124, 21.044
937.379, 21.374
938.634, 11.704
939.889, 31.032
941.144, 16.359
942.398, 17.689
943.652, 2.983
944.906, 32.342
946.160, 22.666
947.414, 15.989
948.667, 9.311
949.920, 11.698
951.173, 19.915
952.426, 19.787
953.678, 24.459
954.931, 27.423
956.183, 22.740
957.435, 26.838
958.686, 21.213
959.938, 24.518
961.189, 12.831
962.440, 2.144
963.691, 0.455
964.941, 8.724
966.192, 15.965
967.442, 0.352
968.692, 11.571
969.942, 5.869
971.191, 23.167
972.441, 30.463
973.690, 12.758
974.939, 12.051
976.187, 4.344
977.436, 19.636
978.684, 19.926
979.932, 13.216
981.180, 13.504
982.428, 19.792
983.675, 10.078
984.922, 22.363
986.169, 3.647
987.416, 11.929
988.663, 12.211
989.909, 30.491
991.155, 38.771
992.401, 48.049
993.647, 19.326
994.893, 24.602
996.138, 36.877
997.383, 46.151
998.628, 44.424
999.873, 46.696
1001.117, 53.967
1002.362, 32.238
1003.606, 23.507
1004.850, 54.776
1006.093, 45.044
1007.337, 61.349
1008.580, 41.691
1009.823, 69.955
1011.066, 77.218
1012.308, 77.481
1013.551, 62.751
1014.793, 51.047
1016.035, 67.273
1017.277, 86.306
1018.518, 58.571
1019.760, 82.828
1021.001, 96.021
1022.242, 101.942
1023.483, 70.195
1024.723, 134.446
1025.964, 162.609
1027.204, 174.951
1028.444, 304.198
1029.683, 276.627
1030.923, 415.159
1032.162, 300.257
1033.401, 195.524
1034.640, 221.004
1035.879, 260.666
1037.117, 261.902
1038.355, 381.136
1039.593, 416.826
1040.831, 462.335
1042.069, 580.306
1043.306, 707.995
1044.544, 951.227
1045.781, 1338.185
1047.017, 1868.221
1048.254, 3267.027
1049.490, 6926.255
1050.726, 23194.648
1051.962, 60043.844
1053.198, 64603.016
1054.434, 43231.145
1055.669, 16350.335
1056.904, 6213.545
1058.139, 3047.750
1059.374, 1701.954
1060.608, 1087.690
1061.843, 789.891
1063.077, 579.090
1064.311, 467.286
1065.544, 400.335
1066.778, 359.535
1068.011, 300.436
1069.244, 268.626
1070.477, 209.819
1071.710, 227.005
1072.942, 188.190
1074.174, 144.373
1075.406, 162.542
1076.638, 155.722
1077.870, 153.900
1079.101, 122.077
1080.332, 109.251
1081.563, 93.425
1082.794, 88.075
1084.025, 131.111
1085.255, 98.389
1086.485, 106.556
1087.715, 129.721
1088.945, 98.885
1090.175, 117.751
1091.404, 109.912
1092.633, 115.793
1093.862, 132.950
1095.091, 107.105
1096.319, 91.259
1097.548, 83.401
1098.776, 77.539
1100.004, 82.701
1101.231, 85.851
1102.459, 80.999
1103.686, 95.145
1104.913, 76.290
1106.140, 70.434
1107.367, 81.576
1108.593, 61.717
1109.819, 86.856
1111.046, 59.955
1112.271, 62.015
1113.497, 52.138
1114.722, 12.170
1115.948, 35.217
1117.173, 23.347
1118.398, 41.453
1119.622, 52.581
1120.847, 48.707
1122.071, 72.832
1123.295, 44.955
1124.519, 36.047
1125.742, 59.167
1126.966, 44.286
1128.189, 55.404
1129.412, 39.520
1130.635, 24.634
1131.857, 15.742
1133.080, 24.854
1134.302, 16.932
1135.524, 21.042
1136.746, 45.149
1137.967, 26.256
1139.188, 27.361
1140.410, 34.464
1141.631, 25.584
1142.851, 28.350
1144.072, 21.768
1145.292, 29.866
1146.512, 25.964
1147.732, 37.060
1148.952, 30.155
1150.172, 17.248
1151.391, 10.341
1152.610, 15.432
1153.829, 4.522
1155.048, 13.390
1156.266, 17.688
1157.484, 18.764
1158.702, 29.840
1159.920, 29.348
1161.138, 3.987
1162.356, 27.058
1163.573, 24.872
1164.790, 10.182
1166.007, 37.235
1167.224, 11.713
1168.440, 23.671
1169.656, 39.357
1170.872, 17.383
1172.088, 14.408
1173.304, 1.432
1174.519, 14.455
1175.735, 6.477
1176.950, 6.500
1178.165, 13.478
1179.379, 3.535
1180.594, 1.453
1181.808, 4.444
1183.022, 17.560
1184.236, 34.564
1185.449, 10.433
1186.663, 2.437
1187.876, 10.443
1189.089, 21.458
1190.302, 7.515
1191.515, 3.491
1192.727, 27.532
1193.939, 8.571
1195.151, 5.384
1196.363, 17.662
1197.575, 3.282
1198.786, 22.225
1199.997, 18.169
1201.208, 25.116
1202.419, 13.064
1203.630, 7.011
1204.840, 12.959
1206.051, 8.094
1207.261, 27.849
1208.470, 10.791
1209.680, 22.734
1210.889, 31.681
1212.099, 2.633
1213.308, 19.587
1214.516, 28.542
1215.725, 2.497
1216.933, 18.453
1218.142, 25.410
1219.350, 17.367
1220.557, 28.325
1221.765, 9.284
1222.972, 39.244
1224.180, 6.204
1225.387, 32.164
1226.593, 32.126
1227.800, 37.087
1229.006, 6.950
1230.213, 2.991
1231.419, 19.967
1232.624, 6.925
1233.830, 34.878
1235.035, 13.168
1236.241, 38.781
1237.446, 23.731
1238.650, 22.681
1239.855, 52.631
1241.059, 7.580
1242.264, 21.529
1243.468, 44.478
1244.671, 30.426
1245.875, 39.374
1247.078, 28.322
1248.282, 43.270
1249.485, 45.217
1250.687, 17.164
1251.890, 33.111
1253.092, 27.057
1254.295, 35.004
1255.497, 46.950
1256.699, 45.897
1257.900, 60.843
1259.102, 58.790
1260.303, 28.725
1261.504, 51.676
1262.705, 55.628
1263.905, 29.580
1265.106, 65.532
1266.306, 77.483
1267.506, 98.435
1268.706, 78.387
1269.905, 93.340
1271.105, 100.292
1272.304, 88.245
1273.503, 91.199
1274.702, 99.152
1275.900, 115.107
1277.099, 87.062
1278.297, 119.017
1279.495, 96.974
1280.693, 107.931
1281.891, 153.889
1283.088, 118.848
1284.285, 168.808
1285.482, 109.769
1286.679, 113.731
1287.876, 138.695
1289.072, 167.660
1290.268, 154.627
1291.464, 209.595
1292.660, 153.565
1293.856, 163.536
1295.051, 196.508
1296.247, 159.471
1297.442, 245.446
1298.637, 229.385
1299.831, 218.287
1301.026, 251.267
1302.220, 211.249
1303.414, 279.233
1304.608, 300.176
1305.802, 300.124
1306.995, 331.114
1308.188, 335.400
1309.381, 328.318
1310.574, 356.314
1311.767, 368.376
1312.960, 373.694
1314.152, 371.698
1315.344, 379.704
1316.536, 367.713
1317.728, 415.631
1318.919, 383.646
1320.110, 432.648
1321.301, 418.654
1322.492, 389.673
1323.683, 434.675
1324.874, 390.465
1326.064, 423.077
1327.254, 428.116
1328.444, 412.161
1329.634, 497.424
1330.823, 433.198
1332.013, 453.480
1333.202, 489.081
1334.391, 457.145
1335.580, 467.198
1336.768, 459.451
1337.956, 475.905
1339.145, 531.985
1340.333, 576.893
1341.520, 550.979
1342.708, 609.086
1343.895, 620.200
1345.083, 698.321
1346.270, 805.449
1347.456, 808.585
1348.643, 915.729
1349.829, 1029.347
1351.016, 1062.508
1352.202, 1271.678
1353.387, 1330.918
1354.573, 1451.107
1355.759, 1700.462
1356.944, 1726.672
1358.129, 1821.894
1359.314, 2006.123
1360.498, 1865.422
1361.683, 2056.681
1362.867, 2050.021
1364.051, 1857.245
1365.235, 1995.465
1366.419, 1944.759
1367.602, 1929.978
1368.785, 2189.189
1369.968, 2225.422
1371.151, 2327.605
1372.334, 2497.417
1373.517, 2428.441
1374.699, 2398.464
1375.881, 2243.771
1377.063, 1998.791
1378.245, 1834.812
1379.426, 1624.514
1380.608, 1413.860
1381.789, 1228.886
1382.970, 1053.915
1384.150, 894.945
1385.331, 776.638
1386.511, 659.012
1387.691, 588.049
1388.871, 508.087
1390.051, 448.128
1391.231, 419.171
1392.410, 370.216
1393.589, 319.264
1394.768, 304.313
1395.947, 279.365
1397.126, 262.420
1398.304, 262.477
1399.483, 214.536
1400.661, 250.597
1401.838, 200.661
1403.016, 184.728
1404.194, 217.796
1405.371, 217.868
1406.548, 205.942
1407.725, 224.025
1408.901, 218.116
1410.078, 222.211
1411.254, 243.310
1412.430, 205.433
1413.606, 231.564
1414.782, 260.725
1415.958, 237.890
1417.133, 264.061
1418.308, 236.235
1419.483, 257.427
1420.658, 271.630
1421.832, 281.839
1423.007, 259.066
1424.181, 264.320
1425.355, 253.581
1426.529, 238.893
1427.702, 231.216
1428.876, 225.553
1430.049, 208.896
1431.222, 170.244
1432.395, 159.602
1433.567, 168.969
1434.740, 123.325
1435.912, 169.682
1437.084, 139.042
1438.256, 110.403
1439.428, 138.765
1440.599, 87.129
1441.770, 116.495
1442.942, 97.865
1444.112, 96.248
1445.283, 74.650
1446.454, 106.071
1447.624, 33.507
1448.794, 104.957
1449.964, 119.422
1451.134, 54.904
1452.303, 120.401
1453.473, 75.916
1454.642, 47.448
1455.811, 84.999
1456.980, 99.570
1458.148, 90.162
1459.317, 87.775
1460.485, 49.411
1461.653, 64.071
1462.821, 74.756
1463.989, 52.466
1465.156, 89.200
1466.323, 71.961
1467.490, 62.749
1468.657, 108.564
1469.824, 97.406
1470.991, 67.276
1472.157, 72.172
1473.323, 61.097
1474.489, 80.051
1475.655, 81.038
1476.820, 72.835
1477.986, 57.123
1479.151, 65.227
1480.316, 43.375
1481.481, 57.569
1482.645, 46.813
1483.810, 31.108
1484.974, 51.458
1486.138, 54.865
1487.302, 41.334
1488.465, 45.867
1489.629, 22.468
1490.792, 35.143
1491.955, 29.895
1493.118, 17.270
1494.281, 27.657
1495.443, 1.316
1496.606, 17.817
1497.768, 34.068
1498.930, 28.444
1500.091, 6.959
1501.253, 50.624
1502.414, 10.453
1503.575, 26.547
1504.736, 31.163
1505.897, 0.586
1507.058, 25.997
1508.218, 3.954
1509.379, 0.070
1510.539, 27.887
1511.698, 4.602
1512.858, 0.000
##END=



