##NAMES=Chrysoberyl
##RRUFFID=R040073
##IDEAL CHEMISTRY=BeAl_2_O_4_
##LOCALITY=Brazil
##OWNER=RRUFF
##SOURCE=University of Arizona Mineral Museum
##DESCRIPTION=Pair of green prismatic crystals
##STATUS=The identification of this mineral has been confirmed by X-ray diffraction and chemical analysis
##URL=rruff.info/R040073
##MEASURED CHEMISTRY=(Be_0.89_Al_0.06_Fe_0.02_)Al_2.00_O_4_
##PIN_ID=M00359
##ORIENTATION=Laser parallel to -a [-1 0 0]. Fiducial mark perpendicular to laser is parallel to -b* (0 -1 0)
94.768, 0.000
96.161, 1.694
97.554, 48.556
98.947, 3.352
100.340, 1.005
101.732, 43.440
103.124, 127.374
104.516, 312.233
105.908, 482.633
107.300, 440.346
108.691, 387.140
110.082, 384.784
111.473, 349.129
112.864, 496.147
114.254, 729.724
115.644, 922.784
117.034, 1063.435
118.424, 850.648
119.813, 879.268
121.203, 708.138
122.592, 669.139
123.981, 499.182
125.369, 323.343
126.758, 309.707
128.146, 325.274
129.534, 433.522
130.922, 377.043
132.309, 304.332
133.696, 310.375
135.083, 364.629
136.470, 289.140
137.857, 326.818
139.243, 311.442
140.630, 335.480
142.016, 266.960
143.401, 267.974
144.787, 192.553
146.172, 282.707
147.557, 296.429
148.942, 225.758
150.327, 236.708
151.711, 227.301
153.096, 272.556
154.480, 340.931
155.863, 204.956
157.247, 217.012
158.630, 276.292
160.013, 308.032
161.396, 340.691
162.779, 401.166
164.161, 427.271
165.544, 501.540
166.926, 501.110
168.308, 482.671
169.689, 521.064
171.070, 696.155
172.452, 640.533
173.833, 577.469
175.213, 657.361
176.594, 579.792
177.974, 754.762
179.354, 744.922
180.734, 748.257
182.114, 757.041
183.493, 793.231
184.872, 769.906
186.251, 803.002
187.630, 644.141
189.008, 626.075
190.387, 616.430
191.765, 567.762
193.143, 546.828
194.520, 583.877
195.898, 596.643
197.275, 525.796
198.652, 571.833
200.029, 487.506
201.405, 537.862
202.782, 430.807
204.158, 528.973
205.534, 579.893
206.909, 434.848
208.285, 517.740
209.660, 417.615
211.035, 191.473
212.410, 191.310
213.784, 49.123
215.159, 122.915
216.533, 107.680
217.907, 25.421
219.281, 123.133
220.654, 25.812
222.027, 78.456
223.400, 25.062
224.773, 79.631
226.146, 5.163
227.518, 131.657
228.891, 71.884
230.263, 39.540
231.634, 30.928
233.006, 17.283
234.377, 15.396
235.748, 29.893
237.119, 23.855
238.490, 111.359
239.860, 191.527
241.231, 146.652
242.601, 179.732
243.970, 299.765
245.340, 156.707
246.709, 67.605
248.079, 97.443
249.448, 8.661
250.816, 46.160
252.185, 52.252
253.553, 60.180
254.921, 18.547
256.289, 84.353
257.657, 48.340
259.024, 74.448
260.391, 31.757
261.758, 5.823
263.125, 13.147
264.492, 27.670
265.858, 29.613
267.224, 42.456
268.590, 126.431
269.956, 64.615
271.321, 27.660
272.687, 33.305
274.052, 5.301
275.416, 4.781
276.781, 6.376
278.146, 44.536
279.510, 87.421
280.874, 76.280
282.237, 97.109
283.601, 105.719
284.964, 95.099
286.327, 125.402
287.690, 80.097
289.053, 106.757
290.416, 106.380
291.778, 57.967
293.140, 101.817
294.502, 104.018
295.863, 123.480
297.225, 171.903
298.586, 134.288
299.947, 205.632
301.308, 148.931
302.668, 90.181
304.029, 144.380
305.389, 198.528
306.749, 104.626
308.108, 163.753
309.468, 229.680
310.827, 190.640
312.186, 113.558
313.545, 156.434
314.903, 150.271
316.262, 139.072
317.620, 142.838
318.978, 166.558
320.336, 202.239
321.693, 238.873
323.051, 257.458
324.408, 236.996
325.765, 284.393
327.121, 365.877
328.478, 357.222
329.834, 418.505
331.190, 482.734
332.546, 446.943
333.902, 547.135
335.257, 520.305
336.612, 546.432
337.967, 651.526
339.322, 666.521
340.677, 894.372
342.031, 1240.127
343.385, 1666.473
344.739, 2308.422
346.093, 2964.912
347.446, 3861.373
348.799, 4894.755
350.153, 4916.076
351.505, 4058.373
352.858, 3006.656
354.210, 2348.926
355.563, 1978.181
356.915, 1858.423
358.267, 2084.650
359.618, 2316.864
360.969, 2816.070
362.321, 3447.270
363.672, 4667.459
365.022, 6038.639
366.373, 7722.812
367.723, 9550.978
369.073, 10644.135
370.423, 10702.286
371.773, 8782.433
373.122, 6482.572
374.471, 4516.705
375.821, 3016.832
377.169, 2156.067
378.518, 1475.947
379.866, 1056.759
381.215, 946.645
382.563, 576.527
383.910, 444.438
385.258, 347.023
386.605, 339.941
387.952, 189.549
389.299, 341.999
390.646, 265.929
391.992, 140.618
393.339, 188.825
394.685, 150.089
396.031, 115.936
397.376, 165.077
398.722, 44.186
400.067, 7.982
401.412, 107.108
402.757, 58.089
404.101, 91.101
405.446, 154.113
406.790, 142.146
408.134, 47.218
409.478, 156.653
410.821, 40.905
412.165, 79.306
413.508, 90.753
414.851, 48.618
416.193, 93.629
417.536, 229.193
418.878, 393.562
420.220, 540.287
421.562, 274.476
422.904, 275.785
424.245, 94.372
425.586, 4.910
426.927, 126.391
428.268, 63.945
429.609, 26.579
430.949, 175.579
432.289, 229.797
433.629, 295.236
434.969, 431.275
436.309, 348.071
437.648, 431.897
438.987, 495.632
440.326, 704.507
441.665, 840.049
443.003, 1090.451
444.342, 1488.092
445.680, 1381.895
447.018, 1544.429
448.355, 1391.295
449.693, 1556.745
451.030, 1851.467
452.367, 2770.188
453.704, 4136.322
455.041, 6329.008
456.377, 8941.714
457.713, 12674.573
459.049, 16647.592
460.385, 16054.502
461.721, 10864.519
463.056, 6290.493
464.391, 3997.106
465.726, 2828.069
467.061, 2109.080
468.395, 1969.834
469.730, 2353.845
471.064, 2995.856
472.398, 4377.869
473.731, 5871.729
475.065, 8374.742
476.398, 10346.760
477.731, 11225.750
479.064, 9507.764
480.397, 6833.782
481.729, 4637.808
483.062, 3136.834
484.394, 2209.863
485.725, 1720.897
487.057, 1386.933
488.389, 1105.973
489.720, 860.018
491.051, 771.067
492.382, 783.122
493.712, 805.182
495.043, 897.247
496.373, 986.947
497.703, 1114.395
499.032, 1274.477
500.362, 1374.566
501.691, 1368.533
503.020, 1370.767
504.349, 1260.880
505.678, 1141.001
507.007, 1014.131
508.335, 1128.271
509.663, 1308.421
510.991, 1592.581
512.319, 1935.753
513.646, 2759.935
514.973, 3735.127
516.300, 5570.331
517.627, 7848.545
518.954, 10037.770
520.280, 13566.008
521.607, 17139.252
522.933, 20142.516
524.259, 19090.789
525.584, 14712.071
526.910, 9916.368
528.235, 6346.677
529.560, 4254.998
530.885, 2681.331
532.209, 1843.677
533.534, 1581.035
534.858, 1227.407
536.182, 1115.792
537.506, 1060.193
538.829, 1024.609
540.152, 1005.361
541.476, 1050.721
542.799, 1044.954
544.121, 1161.438
545.444, 1225.938
546.766, 1225.457
548.088, 1210.992
549.410, 969.549
550.732, 920.121
552.053, 700.735
553.375, 633.368
554.696, 625.021
556.017, 523.693
557.337, 472.392
558.658, 498.111
559.978, 307.662
561.298, 256.772
562.618, 199.280
563.938, 61.593
565.257, 177.841
566.576, 63.227
567.895, 107.231
569.214, 249.194
570.533, 7.096
571.851, 192.403
573.170, 187.307
574.488, 158.521
575.805, 188.538
577.123, 90.274
578.440, 196.541
579.758, 293.567
581.075, 192.704
582.391, 381.235
583.708, 231.950
585.024, 249.050
586.341, 405.490
587.657, 470.390
588.972, 536.006
590.288, 439.614
591.603, 431.424
592.918, 591.863
594.233, 590.339
595.548, 782.843
596.863, 821.430
598.177, 874.992
599.491, 960.573
600.805, 1002.172
602.119, 1162.787
603.432, 1274.419
604.746, 1408.067
606.059, 1392.731
607.372, 1368.413
608.685, 1482.802
609.997, 1543.826
611.309, 1649.559
612.621, 1781.310
613.933, 1893.078
615.245, 1907.864
616.557, 2065.666
617.868, 2179.485
619.179, 2194.320
620.490, 2355.312
621.801, 2477.041
623.111, 2564.927
624.421, 2877.831
625.731, 2952.751
627.041, 3433.691
628.351, 3706.647
629.660, 4479.619
630.970, 6053.611
632.279, 8131.620
633.588, 12191.646
634.896, 18074.691
636.205, 27062.752
637.513, 36350.840
638.821, 43882.938
640.129, 40705.055
641.437, 29418.186
642.744, 18364.336
644.051, 11900.512
645.358, 7975.703
646.665, 5482.912
647.972, 3999.143
649.278, 3139.391
650.584, 2543.656
651.890, 2369.944
653.196, 2116.250
654.502, 1995.575
655.807, 1777.922
657.113, 1829.287
658.418, 1669.672
659.722, 1403.078
661.027, 1403.503
662.331, 1184.948
663.636, 1295.414
664.940, 907.899
666.244, 1059.407
667.547, 988.936
668.851, 951.485
670.154, 792.056
671.457, 798.647
672.760, 809.260
674.062, 643.894
675.365, 591.550
676.667, 810.228
677.969, 774.926
679.271, 730.646
680.572, 753.389
681.874, 708.685
683.175, 657.383
684.476, 619.752
685.777, 566.585
687.077, 427.441
688.378, 452.320
689.678, 416.222
690.978, 386.148
692.278, 107.098
693.577, 403.071
694.877, 183.069
696.176, 532.091
697.475, 216.138
698.774, 324.208
700.072, 259.303
701.371, 398.423
702.669, 406.327
703.967, 323.736
705.265, 449.932
706.562, 435.150
707.860, 396.396
709.157, 682.668
710.454, 644.965
711.751, 743.287
713.047, 456.635
714.344, 422.008
715.640, 34.407
716.936, 2.160
718.232, 92.320
719.527, 66.153
720.823, 101.608
722.118, 39.955
723.413, 174.413
724.708, 57.824
726.002, 23.803
727.297, 103.535
728.591, 181.868
729.885, 36.265
731.179, 109.658
732.472, 141.079
733.766, 168.542
735.059, 182.062
736.352, 71.643
737.645, 209.233
738.937, 82.898
740.230, 273.579
741.522, 207.362
742.814, 142.219
744.106, 101.116
745.397, 60.029
746.689, 103.948
747.980, 76.109
749.271, 61.194
750.562, 122.307
751.853, 39.556
753.143, 299.589
754.433, 291.759
755.723, 169.956
757.013, 472.181
758.303, 410.431
759.592, 696.710
760.881, 658.015
762.170, 869.350
763.459, 1101.711
764.748, 1416.101
766.036, 2013.517
767.325, 2145.961
768.613, 2928.434
769.901, 3732.934
771.188, 4564.462
772.476, 6094.016
773.763, 7225.600
775.050, 9161.213
776.337, 10642.853
777.624, 11757.521
778.910, 12201.218
780.196, 11484.941
781.482, 9828.696
782.768, 8296.480
784.054, 6905.289
785.339, 5647.351
786.625, 4531.518
787.910, 3612.895
789.195, 2808.819
790.479, 2300.774
791.764, 2007.758
793.048, 1660.769
794.332, 1499.810
795.616, 1249.880
796.900, 1165.979
798.183, 917.106
799.467, 901.264
800.750, 759.464
802.033, 678.693
803.316, 732.953
804.598, 542.240
805.880, 688.558
807.163, 614.904
808.445, 760.289
809.726, 738.705
811.008, 932.149
812.289, 1099.623
813.570, 1359.126
814.851, 1656.674
816.132, 1866.250
817.413, 1895.869
818.693, 2030.519
819.973, 1712.236
821.253, 1462.987
822.533, 1378.766
823.813, 1150.574
825.092, 949.412
826.371, 1086.279
827.650, 896.176
828.929, 834.122
830.208, 900.099
831.486, 793.107
832.764, 792.152
834.042, 728.264
835.320, 732.428
836.598, 779.623
837.875, 714.903
839.152, 688.216
840.429, 838.596
841.706, 675.051
842.983, 652.568
844.259, 891.132
845.536, 740.726
846.812, 732.352
848.088, 738.011
849.363, 782.705
850.639, 814.478
851.914, 631.299
853.189, 840.165
854.464, 814.068
855.739, 984.039
857.013, 747.066
858.288, 742.162
859.562, 796.305
860.836, 942.478
862.110, 824.680
863.383, 851.927
864.656, 729.211
865.930, 905.529
867.203, 761.897
868.475, 965.312
869.748, 678.758
871.020, 818.513
872.292, 675.030
873.564, 714.753
874.836, 616.670
876.108, 687.292
877.379, 673.533
878.650, 739.655
879.922, 703.393
881.192, 735.438
882.463, 720.266
883.733, 658.839
885.004, 604.686
886.274, 664.869
887.544, 787.605
888.813, 506.658
890.083, 687.681
891.352, 796.365
892.621, 645.929
893.890, 657.012
895.159, 658.976
896.427, 688.549
897.695, 792.429
898.964, 783.443
900.232, 714.307
901.499, 786.595
902.767, 940.914
904.034, 906.268
905.301, 1016.602
906.568, 1243.022
907.835, 1374.479
909.102, 1397.970
910.368, 1565.492
911.634, 2289.074
912.900, 2698.688
914.166, 2696.334
915.432, 2677.014
916.697, 3125.725
917.962, 3922.471
919.227, 4509.251
920.492, 5434.062
921.757, 6473.904
923.021, 8214.779
924.285, 10370.688
925.550, 12592.628
926.813, 15790.597
928.077, 19217.596
929.341, 23104.625
930.604, 26335.684
931.867, 28238.768
933.130, 28696.879
934.393, 27855.021
935.655, 24951.193
936.918, 22654.385
938.180, 19155.611
939.442, 16301.862
940.703, 13892.140
941.965, 11893.440
943.226, 9786.767
944.488, 8493.120
945.749, 7497.501
947.009, 6475.904
948.270, 5634.334
949.530, 4939.788
950.791, 4381.267
952.051, 3905.709
953.311, 3468.238
954.570, 3195.898
955.830, 3017.477
957.089, 2556.077
958.348, 2449.701
959.607, 2198.043
960.866, 1977.744
962.124, 1785.533
963.383, 1753.257
964.641, 1629.086
965.899, 1542.670
967.156, 1510.484
968.414, 1348.109
969.671, 1262.938
970.928, 1082.010
972.185, 1257.208
973.442, 1024.098
974.699, 1059.005
975.955, 949.932
977.211, 796.930
978.468, 804.894
979.723, 836.066
980.979, 799.395
982.234, 785.032
983.490, 514.198
984.745, 762.103
986.000, 835.905
987.254, 613.636
988.509, 916.717
989.763, 1019.491
991.017, 696.156
992.271, 672.901
993.525, 527.747
994.779, 603.921
996.032, 558.129
997.285, 718.144
998.538, 390.009
999.791, 765.614
1001.044, 480.460
1002.296, 603.725
1003.548, 529.066
1004.800, 377.854
1006.052, 540.149
1007.304, 485.557
1008.555, 636.268
1009.807, 598.342
1011.058, 511.312
1012.309, 605.756
1013.559, 632.779
1014.810, 518.986
1016.060, 536.924
1017.310, 516.722
1018.560, 392.591
1019.810, 510.694
1021.060, 435.371
1022.309, 364.186
1023.558, 427.460
1024.807, 390.113
1026.056, 412.996
1027.305, 380.530
1028.553, 353.718
1029.801, 357.439
1031.049, 287.993
1032.297, 339.302
1033.545, 312.677
1034.793, 311.323
1036.040, 411.566
1037.287, 414.396
1038.534, 383.889
1039.781, 617.822
1041.027, 377.444
1042.274, 478.616
1043.520, 525.052
1044.766, 373.014
1046.012, 389.343
1047.257, 387.979
1048.503, 480.603
1049.748, 300.574
1050.993, 490.907
1052.238, 357.843
1053.483, 301.471
1054.727, 310.326
1055.971, 562.150
1057.216, 334.764
1058.459, 383.612
1059.703, 344.510
1060.947, 295.508
1062.190, 373.562
1063.433, 240.484
1064.676, 294.519
1065.919, 186.701
1067.162, 357.136
1068.404, 265.111
1069.646, 112.346
1070.888, 315.265
1072.130, 212.551
1073.372, 278.503
1074.613, 236.149
1075.855, 239.978
1077.096, 74.752
1078.337, 276.312
1079.578, 289.170
1080.818, 125.944
1082.059, 241.446
1083.299, 229.262
1084.539, 221.829
1085.779, 104.376
1087.018, 244.851
1088.258, 94.249
1089.497, 161.623
1090.736, 186.015
1091.975, 75.346
1093.213, 32.652
1094.452, 83.936
1095.690, 107.291
1096.928, 211.529
1098.166, 197.097
1099.404, 250.288
1100.642, 59.547
1101.879, 219.082
1103.116, 24.167
1104.353, 205.799
1105.590, 73.026
1106.827, 202.029
1108.063, 31.828
1109.299, 62.101
1110.536, 52.718
1111.771, 107.618
1113.007, 62.461
1114.243, 43.103
1115.478, 84.718
1116.713, 40.558
1117.948, 133.109
1119.183, 140.077
1120.418, 27.736
1121.652, 109.596
1122.886, 431.977
1124.120, 395.679
1125.354, 108.373
1126.588, 225.311
1127.821, 51.239
1129.055, 55.681
1130.288, 22.137
1131.521, 1.193
1132.753, 120.634
1133.986, 53.816
1135.218, 31.616
1136.450, 182.896
1137.682, 37.050
1138.914, 109.596
1140.146, 141.432
1141.377, 93.950
1142.609, 34.301
1143.840, 172.488
1145.071, 39.074
1146.301, 54.848
1147.532, 13.546
1148.762, 150.752
1149.992, 28.870
1151.222, 27.862
1152.452, 17.514
1153.682, 104.670
1154.911, 57.662
1156.140, 109.365
1157.369, 18.693
1158.598, 81.610
1159.827, 187.376
1161.055, 15.306
1162.284, 16.938
1163.512, 26.342
1164.740, 25.278
1165.967, 25.630
1167.195, 82.489
1168.422, 11.608
1169.650, 38.460
1170.877, 73.428
1172.103, 50.349
1173.330, 11.938
1174.557, 20.600
1175.783, 44.466
1177.009, 10.575
1178.235, 116.058
1179.461, 93.736
1180.686, 51.050
1181.912, 137.475
1183.137, 115.943
1184.362, 200.885
1185.587, 98.221
1186.811, 197.588
1188.036, 95.194
1189.260, 158.479
1190.484, 124.560
1191.708, 229.490
1192.932, 153.369
1194.155, 120.100
1195.378, 125.097
1196.602, 255.714
1197.825, 174.329
1199.047, 269.189
1200.270, 130.650
1201.492, 286.056
1202.715, 110.476
1203.937, 133.882
1205.159, 109.143
1206.380, 273.322
1207.602, 30.379
1208.823, 232.645
1210.044, 103.615
1211.265, 233.545
1212.486, 195.408
1213.707, 152.223
1214.927, 98.980
1216.147, 175.682
1217.367, 248.332
1218.587, 78.936
1219.807, 234.482
1221.027, 304.982
1222.246, 108.434
1223.465, 267.832
1224.684, 427.182
1225.903, 240.977
1227.121, 258.227
1228.340, 405.430
1229.558, 240.578
1230.776, 295.676
1231.994, 296.723
1233.212, 309.889
1234.429, 360.824
1235.646, 344.092
1236.864, 316.531
1238.081, 340.469
1239.297, 351.357
1240.514, 353.029
1241.730, 306.766
1242.947, 403.992
1244.163, 246.492
1245.378, 378.594
1246.594, 383.967
1247.810, 207.545
1249.025, 385.803
1250.240, 194.898
1251.455, 286.045
1252.670, 485.314
1253.885, 294.316
1255.099, 344.586
1256.313, 91.717
1257.527, 141.588
1258.741, 492.234
1259.955, 190.875
1261.168, 318.031
1262.382, 381.672
1263.595, 369.516
1264.808, 290.031
1266.021, 255.258
1267.233, 257.527
1268.446, 387.867
1269.658, 261.795
1270.870, 256.176
1272.082, 190.299
1273.294, 127.424
1274.505, 178.605
1275.716, 272.303
1276.928, 162.115
1278.139, 342.910
1279.349, 163.982
1280.560, 212.326
1281.770, 189.459
1282.981, 50.207
1284.191, 168.230
1285.401, 175.330
1286.610, 108.551
1287.820, 227.572
1289.029, 173.246
1290.239, 212.680
1291.448, 157.254
1292.656, 163.943
1293.865, 149.852
1295.073, 101.488
1296.282, 14.338
1297.490, 45.594
1298.698, 296.295
1299.906, 129.312
1301.113, 133.180
1302.320, 194.703
1303.528, 67.820
1304.735, 140.010
1305.942, 257.686
1307.148, 250.742
1308.355, 179.574
1309.561, 170.635
1310.767, 94.779
1311.973, 185.805
1313.179, 173.559
1314.384, 311.660
1315.590, 177.488
1316.795, 175.811
1318.000, 53.727
1319.205, 169.391
1320.410, 175.361
1321.614, 6.068
1322.819, 156.930
1324.023, 133.256
1325.227, 235.336
1326.431, 26.725
1327.634, 141.047
1328.838, 54.129
1330.041, 147.688
1331.244, 125.490
1332.447, 73.844
1333.650, 118.475
1334.852, 153.555
1336.055, 175.346
1337.257, 175.641
1338.459, 238.957
1339.661, 119.555
1340.862, 261.145
1342.064, 183.350
1343.265, 110.174
1344.466, 309.355
1345.667, 202.766
1346.868, 174.904
1348.068, 163.219
1349.269, 182.516
1350.469, 227.539
1351.669, 144.408
1352.869, 305.094
1354.069, 291.426
1355.268, 175.371
1356.468, 275.564
1357.667, 231.617
1358.866, 275.002
1360.065, 257.998
1361.263, 183.025
1362.462, 262.564
1363.660, 375.266
1364.858, 194.012
1366.056, 348.842
1367.254, 364.607
1368.451, 234.332
1369.649, 60.867
1370.846, 258.016
1372.043, 196.475
1373.240, 284.279
1374.436, 275.693
1375.633, 192.727
1376.829, 114.830
1378.025, 368.645
1379.221, 179.785
1380.417, 316.711
1381.613, 113.037
1382.808, 111.543
1384.003, 228.596
1385.199, 117.104
1386.393, 24.572
1387.588, 214.930
1388.783, 22.826
1389.977, 187.703
1391.171, 88.699
1392.365, 169.693
1393.559, 150.322
1394.753, 162.494
1395.946, 87.080
1397.140, 188.670
1398.333, 119.502
1399.526, 58.223
1400.719, 223.031
1401.911, 250.742
1403.104, 180.736
1404.296, 46.311
1405.488, 106.736
1406.680, 94.908
1407.872, 183.861
1409.063, 203.266
1410.255, 7.920
1411.446, 175.770
1412.637, 4.576
1413.828, 71.188
1415.018, 220.045
1416.209, 110.023
1417.399, 25.688
1418.589, 249.166
1419.779, 92.160
1420.969, 231.219
1422.159, 88.242
1423.348, 38.547
1424.537, 188.586
1425.726, 128.951
1426.915, 175.312
1428.104, 96.646
1429.293, 38.930
1430.481, 53.154
1431.669, 43.312
1432.857, 154.289
1434.045, 98.307
1435.233, 329.285
1436.420, 320.809
1437.608, 280.756
1438.795, 386.980
1439.982, 417.738
1441.169, 407.557
1442.355, 349.656
1443.542, 276.023
1444.728, 239.961
1445.914, 407.400
1447.100, 399.504
1448.286, 327.865
1449.472, 249.020
1450.657, 488.080
1451.842, 344.916
1453.027, 315.105
1454.212, 510.066
1455.397, 366.701
1456.581, 398.424
1457.766, 358.812
1458.950, 238.688
1460.134, 370.637
1461.318, 113.467
1462.501, 223.168
1463.685, 493.027
1464.868, 102.408
1466.051, 321.650
1467.234, 107.748
1468.417, 208.742
1469.600, 316.686
1470.782, 257.438
1471.965, 8.961
1473.147, 378.229
1474.329, 646.307
1475.510, 76.264
1476.692, 226.162
1477.873, 90.748
1479.055, 7.662
1480.236, 309.066
1481.416, 31.836
1482.597, 210.697
1483.778, 231.719
1484.958, 170.979
1486.138, 22.697
1487.318, 41.562
1488.498, 58.002
1489.678, 1.156
1490.857, 110.139
1492.037, 112.361
1493.216, 208.139
1494.395, 0.000
##END=



