##NAMES=Creedite
##RRUFFID=R050141
##IDEAL CHEMISTRY=Ca_3_Al_2_(S^6+^O_4_)(OH)_2_F_8_&#183;2H_2_O
##LOCALITY=Mina de Navidad, Rodeo, Durango, Mexico
##OWNER=RRUFF
##SOURCE=Dave Bunk Minerals
##DESCRIPTION=Radiating group of bladed crystals
##STATUS=The identification of this mineral has been confirmed by X-ray diffraction and chemical analysis
##URL=rruff.info/R050141
##MEASURED CHEMISTRY=Ca_3.00_Al_2.00_(S_1.00_O_4_)(OH)_2_(F_7.31_(OH)_0.69_)_Σ=8_·2H_2_O ; OH estimated by stoichiometry and charge balance OH=10-F
##PIN_ID=L00475
##ORIENTATION=Laser parallel to (1 0 1). Fiducial mark perpendicular to laser is parallel to b [0 1 0]
76.678, 0.000
78.076, 95.948
79.474, 242.022
80.872, 231.362
82.270, 140.021
83.667, 149.719
85.064, 186.363
86.461, 93.316
87.858, 96.479
89.254, 6.985
90.650, 20.200
92.046, 85.940
93.442, 3.859
94.838, 27.721
96.233, 23.610
97.628, 97.761
99.023, 13.762
100.418, 116.031
101.812, 162.157
103.206, 176.579
104.600, 307.214
105.994, 222.001
107.387, 356.893
108.781, 394.860
110.174, 640.892
111.566, 878.971
112.959, 530.073
114.351, 470.180
115.744, 257.276
117.136, 313.352
118.527, 254.796
119.919, 300.985
121.310, 404.331
122.701, 528.657
124.092, 715.252
125.482, 889.325
126.873, 1223.571
128.263, 1293.677
129.653, 1761.576
131.042, 1920.285
132.432, 2070.816
133.821, 1994.182
135.210, 1541.406
136.599, 1260.491
137.987, 919.440
139.376, 969.275
140.764, 919.153
142.152, 988.036
143.539, 1183.874
144.927, 1164.599
146.314, 1072.202
147.701, 888.689
149.088, 820.067
150.474, 619.340
151.861, 597.512
153.247, 554.586
154.633, 405.571
156.018, 330.467
157.404, 182.278
158.789, 278.264
160.174, 239.625
161.559, 339.244
162.943, 386.338
164.327, 435.531
165.711, 565.507
167.095, 652.914
168.479, 904.154
169.862, 1081.729
171.246, 1257.454
172.628, 1516.538
174.011, 1532.741
175.394, 1625.049
176.776, 1541.385
178.158, 1376.971
179.540, 1265.270
180.922, 1171.565
182.303, 1043.858
183.684, 972.146
185.065, 1094.428
186.446, 1173.704
187.826, 1463.973
189.207, 1625.234
190.587, 1802.486
191.967, 1791.608
193.346, 1838.685
194.726, 1662.900
196.105, 1356.104
197.484, 1294.297
198.862, 1177.539
200.241, 1157.226
201.619, 1389.611
202.997, 1393.511
204.375, 1443.312
205.753, 1275.904
207.130, 1151.763
208.507, 982.147
209.884, 803.695
211.261, 804.889
212.638, 783.716
214.014, 1039.525
215.390, 1055.316
216.766, 1177.090
218.141, 1158.847
219.517, 1026.587
220.892, 950.471
222.267, 769.177
223.642, 734.866
225.016, 654.539
226.391, 580.195
227.765, 522.834
229.139, 344.457
230.512, 312.063
231.886, 111.865
233.259, 193.440
234.632, 124.796
236.005, 130.941
237.377, 118.936
238.749, 89.737
240.122, 8.141
241.493, 17.358
242.865, 52.823
244.237, 29.832
245.608, 84.343
246.979, 44.329
248.350, 28.788
249.720, 59.012
251.090, 16.268
252.461, 33.817
253.830, 93.509
255.200, 8.611
256.570, 81.696
257.939, 9.368
259.308, 102.043
260.677, 5.331
262.045, 48.543
263.414, 7.356
264.782, 86.448
266.150, 14.494
267.517, 22.967
268.885, 8.677
270.252, 33.188
271.619, 9.272
272.986, 14.711
274.353, 13.869
275.719, 110.525
277.085, 80.904
278.451, 169.268
279.817, 179.618
281.182, 147.953
282.548, 291.274
283.913, 212.579
285.278, 393.864
286.642, 393.130
288.007, 323.375
289.371, 422.600
290.735, 252.801
292.099, 350.978
293.462, 186.131
294.826, 216.262
296.189, 147.371
297.552, 151.458
298.914, 153.525
300.277, 137.247
301.639, 170.600
303.001, 149.609
304.363, 101.600
305.724, 109.573
307.086, 49.527
308.447, 197.460
309.808, 128.376
311.168, 220.274
312.529, 196.156
313.889, 160.021
315.249, 211.871
316.609, 152.706
317.969, 166.524
319.328, 106.329
320.687, 46.119
322.046, 136.894
323.405, 73.636
324.764, 154.300
326.122, 27.109
327.480, 71.426
328.838, 13.927
330.196, 14.592
331.553, 88.856
332.910, 43.284
334.267, 4.321
335.624, 17.012
336.981, 86.239
338.337, 48.430
339.693, 27.590
341.049, 133.719
342.405, 46.839
343.760, 214.951
345.116, 174.056
346.471, 278.154
347.826, 377.244
349.180, 309.328
350.535, 295.405
351.889, 274.476
353.243, 287.539
354.597, 190.596
355.950, 121.645
357.304, 158.685
358.657, 134.719
360.010, 110.746
361.362, 61.767
362.715, 103.780
364.067, 179.785
365.419, 150.783
366.771, 215.754
368.123, 133.700
369.474, 269.637
370.825, 284.543
372.176, 221.442
373.527, 301.333
374.877, 135.218
376.228, 217.098
377.578, 122.978
378.928, 114.855
380.277, 116.728
381.627, 81.624
382.976, 112.518
384.325, 32.406
385.674, 80.290
387.023, 118.170
388.371, 87.060
389.719, 165.947
391.067, 117.834
392.415, 253.730
393.762, 223.624
395.110, 261.515
396.457, 343.403
397.804, 234.289
399.150, 301.172
400.497, 200.053
401.843, 260.882
403.189, 234.690
404.535, 167.938
405.881, 229.957
407.226, 13.687
408.571, 112.307
409.916, 1.837
411.261, 6.309
412.605, 18.051
413.950, 56.839
415.294, 23.424
416.638, 31.867
417.981, 26.359
419.325, 27.249
420.668, 70.269
422.011, 39.360
423.354, 89.150
424.697, 24.957
426.039, 42.035
427.381, 47.806
428.723, 116.431
430.065, 22.524
431.406, 153.379
432.748, 62.745
434.089, 156.715
435.430, 237.925
436.770, 213.505
438.111, 509.992
439.451, 580.352
440.791, 813.882
442.131, 894.409
443.471, 868.933
444.810, 1064.455
446.149, 1082.974
447.488, 1256.490
448.827, 1254.005
450.166, 1258.517
451.504, 1368.027
452.842, 1008.536
454.180, 1197.042
455.518, 1153.546
456.855, 1179.050
458.193, 1339.551
459.530, 1327.052
460.867, 1406.551
462.203, 1361.050
463.540, 1329.547
464.876, 1231.044
466.212, 1046.462
467.548, 1130.915
468.883, 948.021
470.219, 909.517
471.554, 1013.012
472.889, 1052.507
474.224, 1287.002
475.558, 1413.497
476.892, 1976.993
478.227, 2344.488
479.561, 2968.985
480.894, 3728.438
482.228, 4215.547
483.561, 4951.046
484.894, 4715.368
486.227, 4414.873
487.559, 3939.912
488.892, 2946.240
490.224, 2431.719
491.556, 1848.599
492.888, 1473.017
494.220, 1151.173
495.551, 862.759
496.882, 793.573
498.213, 485.002
499.544, 522.248
500.874, 424.242
502.205, 286.785
503.535, 308.050
504.865, 155.601
506.194, 202.157
507.524, 210.717
508.853, 136.282
510.182, 238.852
511.511, 76.426
512.840, 218.005
514.168, 182.589
515.496, 155.177
516.824, 239.771
518.152, 235.369
519.480, 358.973
520.807, 275.582
522.134, 424.055
523.461, 519.674
524.788, 525.298
526.114, 702.927
527.441, 727.748
528.767, 980.393
530.093, 876.045
531.418, 995.704
532.744, 1125.368
534.069, 950.039
535.394, 1018.715
536.719, 923.080
538.044, 778.144
539.368, 755.854
540.693, 611.854
542.017, 617.576
543.340, 502.327
544.664, 489.884
545.987, 592.645
547.311, 397.346
548.634, 583.123
549.956, 485.632
551.279, 473.965
552.601, 538.794
553.923, 387.843
555.245, 489.687
556.567, 348.545
557.889, 289.410
559.210, 254.279
560.531, 136.280
561.852, 252.190
563.173, 174.119
564.493, 221.074
565.813, 243.055
567.133, 268.921
568.453, 231.958
569.773, 189.797
571.092, 307.709
572.412, 245.708
573.731, 191.362
575.049, 311.398
576.368, 79.678
577.686, 215.376
579.005, 191.496
580.323, 177.523
581.640, 272.714
582.958, 119.660
584.275, 293.699
585.593, 297.960
586.909, 294.881
588.226, 505.217
589.543, 465.801
590.859, 768.189
592.175, 948.603
593.491, 1259.031
594.807, 1478.473
596.122, 2038.425
597.438, 2606.435
598.753, 3329.943
600.068, 4180.459
601.382, 5038.006
602.697, 5003.561
604.011, 4929.127
605.325, 4059.699
606.639, 3173.280
607.952, 2389.869
609.266, 1625.466
610.579, 1361.069
611.892, 982.681
613.205, 847.301
614.518, 616.941
615.830, 491.588
617.142, 661.243
618.454, 473.907
619.766, 787.578
621.078, 844.256
622.389, 915.942
623.700, 1382.635
625.011, 1893.335
626.322, 3001.042
627.632, 4303.759
628.943, 5666.483
630.253, 6592.214
631.563, 5847.957
632.872, 4733.707
634.182, 3223.463
635.491, 2158.227
636.800, 1497.040
638.109, 973.817
639.418, 832.602
640.726, 647.395
642.035, 513.195
643.343, 592.874
644.651, 400.688
645.958, 580.524
647.266, 460.368
648.573, 466.223
649.880, 555.491
651.187, 443.371
652.494, 698.259
653.800, 658.177
655.106, 777.098
656.412, 955.027
657.718, 957.962
659.024, 1257.908
660.329, 1394.858
661.634, 1495.816
662.939, 1649.780
664.244, 1565.750
665.549, 1639.726
666.853, 1539.708
668.157, 1145.694
669.461, 1150.688
670.765, 778.686
672.069, 851.690
673.372, 559.701
674.675, 553.716
675.978, 537.736
677.281, 298.762
678.583, 314.793
679.886, 182.830
681.188, 157.872
682.490, 193.919
683.792, 12.054
685.093, 145.001
686.394, 27.461
687.696, 149.526
688.997, 3.595
690.297, 6.799
691.598, 70.877
692.898, 29.831
694.198, 19.645
695.498, 49.882
696.798, 133.016
698.097, 133.018
699.397, 34.054
700.696, 11.095
701.995, 11.140
703.293, 74.892
704.592, 30.134
705.890, 26.555
707.188, 63.762
708.486, 93.242
709.784, 10.226
711.081, 31.782
712.378, 3.872
713.675, 131.883
714.972, 113.909
716.269, 4.392
717.565, 146.451
718.862, 53.290
720.158, 36.262
721.453, 124.281
722.749, 2.995
724.045, 104.021
725.340, 125.049
726.635, 158.315
727.930, 171.345
729.224, 107.416
730.519, 230.467
731.813, 240.517
733.107, 153.942
734.401, 200.008
735.694, 200.549
736.988, 334.632
738.281, 318.714
739.574, 301.756
740.867, 447.864
742.160, 308.961
743.452, 502.457
744.744, 459.569
746.036, 455.637
747.328, 689.749
748.620, 557.967
749.911, 662.159
751.202, 734.262
752.493, 653.264
753.784, 823.361
755.075, 644.489
756.365, 852.143
757.655, 876.241
758.945, 731.035
760.235, 1066.160
761.525, 896.233
762.814, 927.503
764.103, 1050.566
765.392, 985.625
766.681, 1182.894
767.969, 1027.948
769.258, 1082.967
770.546, 973.011
771.834, 944.074
773.122, 935.426
774.409, 745.458
775.697, 712.485
776.984, 644.506
778.271, 432.522
779.558, 504.553
780.844, 401.558
782.131, 401.685
783.417, 373.692
784.703, 192.693
785.989, 397.465
787.274, 173.454
788.560, 187.437
789.845, 284.414
791.130, 47.384
792.415, 125.355
793.699, 153.313
794.983, 74.265
796.268, 210.210
797.552, 4.150
798.835, 190.076
800.119, 150.993
801.402, 116.904
802.686, 223.809
803.969, 15.705
805.251, 229.591
806.534, 144.470
807.816, 64.341
809.098, 307.205
810.380, 133.061
811.662, 319.910
812.944, 263.751
814.225, 308.584
815.506, 462.411
816.787, 407.228
818.068, 395.038
819.349, 422.840
820.629, 312.634
821.909, 445.421
823.189, 330.199
824.469, 312.969
825.749, 387.731
827.028, 218.485
828.307, 361.230
829.586, 155.968
830.865, 186.696
832.144, 185.417
833.422, 138.129
834.700, 213.833
835.978, 89.528
837.256, 11.215
838.534, 217.702
839.811, 25.361
841.088, 168.008
842.365, 111.646
843.642, 56.276
844.919, 126.896
846.195, 38.507
847.472, 63.428
848.748, 28.355
850.023, 85.197
851.299, 99.458
852.575, 56.008
853.850, 128.475
855.125, 123.949
856.400, 10.415
857.674, 149.935
858.949, 61.625
860.223, 21.940
861.497, 113.904
862.771, 15.250
864.045, 161.371
865.318, 12.306
866.591, 87.991
867.864, 81.280
869.137, 69.439
870.410, 8.683
871.682, 8.889
872.955, 9.920
874.227, 179.244
875.499, 21.600
876.770, 139.523
878.042, 119.638
879.313, 14.254
880.584, 105.824
881.855, 78.895
883.126, 109.957
884.396, 100.010
885.667, 79.945
886.937, 234.037
888.207, 17.989
889.476, 89.953
890.746, 166.887
892.015, 89.187
893.284, 152.670
894.553, 10.481
895.822, 32.659
897.090, 114.125
898.359, 10.100
899.627, 181.649
900.895, 63.390
902.163, 69.121
903.430, 182.842
904.698, 89.444
905.965, 99.202
907.232, 80.840
908.499, 68.531
909.765, 86.041
911.032, 9.605
912.298, 77.153
913.564, 170.694
914.830, 40.226
916.095, 152.748
917.361, 120.261
918.626, 38.871
919.891, 172.367
921.156, 28.145
922.420, 244.309
923.685, 82.754
924.949, 19.967
926.213, 157.393
927.477, 129.810
928.740, 152.220
930.004, 165.623
931.267, 83.017
932.530, 276.404
933.793, 56.783
935.056, 149.268
936.318, 215.631
937.581, 6.985
938.843, 298.325
940.104, 184.657
941.366, 120.981
942.628, 304.300
943.889, 86.568
945.150, 311.036
946.411, 263.333
947.672, 156.624
948.932, 379.249
950.193, 155.655
951.453, 322.924
952.713, 376.188
953.973, 177.445
955.232, 380.694
956.491, 325.542
957.751, 366.777
959.010, 554.007
960.268, 451.215
961.527, 452.431
962.785, 546.643
964.044, 449.848
965.302, 807.046
966.559, 689.238
967.817, 800.423
969.075, 1024.602
970.332, 885.774
971.589, 1209.939
972.846, 1269.100
974.102, 1563.255
975.359, 1981.403
976.615, 2254.545
977.871, 2979.683
979.127, 3657.812
980.383, 4661.938
981.638, 6726.058
982.893, 9730.176
984.149, 15304.290
985.404, 25618.398
986.658, 38542.496
987.913, 49346.594
989.167, 45109.711
990.421, 33503.797
991.675, 22767.482
992.929, 14291.604
994.183, 9735.715
995.436, 6469.695
996.689, 4513.803
997.942, 3527.695
999.195, 2681.690
1000.448, 2265.369
1001.700, 1831.470
1002.952, 1309.611
1004.204, 1311.750
1005.456, 1009.884
1006.708, 881.024
1007.959, 941.241
1009.210, 565.386
1010.461, 686.271
1011.712, 663.671
1012.963, 521.850
1014.213, 657.505
1015.464, 419.685
1016.714, 496.779
1017.964, 493.951
1019.214, 291.108
1020.463, 475.596
1021.712, 303.937
1022.962, 498.281
1024.210, 415.490
1025.459, 246.651
1026.708, 533.117
1027.956, 316.272
1029.204, 313.425
1030.452, 505.340
1031.700, 336.490
1032.948, 415.602
1034.195, 479.750
1035.442, 290.895
1036.689, 460.672
1037.936, 391.818
1039.183, 372.486
1040.429, 551.630
1041.676, 267.773
1042.922, 456.978
1044.168, 294.164
1045.413, 302.358
1046.659, 406.163
1047.904, 197.357
1049.149, 337.599
1050.394, 343.792
1051.639, 204.878
1052.884, 325.986
1054.128, 159.181
1055.372, 185.473
1056.616, 121.666
1057.860, 34.827
1059.104, 180.457
1060.347, 135.639
1061.590, 91.124
1062.833, 151.272
1064.076, 110.490
1065.319, 29.504
1066.561, 123.721
1067.803, 40.061
1069.046, 209.937
1070.287, 103.145
1071.529, 69.384
1072.771, 173.594
1074.012, 32.219
1075.253, 197.669
1076.494, 83.872
1077.735, 7.112
1078.975, 155.354
1080.216, 33.595
1081.456, 38.821
1082.696, 270.066
1083.936, 80.815
1085.175, 147.407
1086.415, 223.629
1087.654, 57.189
1088.893, 272.417
1090.132, 10.645
1091.371, 123.322
1092.609, 142.551
1093.847, 9.228
1095.085, 142.381
1096.323, 140.614
1097.561, 17.754
1098.799, 264.477
1100.036, 105.712
1101.273, 111.317
1102.510, 225.556
1103.747, 65.795
1104.983, 349.083
1106.220, 132.332
1107.456, 139.850
1108.692, 361.114
1109.928, 92.378
1111.163, 252.251
1112.399, 273.517
1113.634, 90.783
1114.869, 390.163
1116.104, 289.433
1117.339, 353.702
1118.573, 644.975
1119.808, 486.248
1121.042, 913.947
1122.276, 1091.227
1123.509, 1183.505
1124.743, 1565.144
1125.976, 1967.422
1127.210, 2108.700
1128.443, 2687.279
1129.675, 2761.559
1130.908, 3717.121
1132.141, 4831.401
1133.373, 5895.679
1134.605, 7610.335
1135.837, 8634.615
1137.068, 8609.185
1138.300, 8134.062
1139.531, 6288.348
1140.762, 5172.092
1141.993, 4006.712
1143.224, 2740.995
1144.455, 2546.331
1145.685, 1750.615
1146.915, 1368.024
1148.145, 1253.527
1149.375, 777.824
1150.605, 887.363
1151.834, 742.914
1153.063, 515.226
1154.292, 673.362
1155.521, 455.679
1156.750, 544.997
1157.978, 437.101
1159.207, 381.438
1160.435, 521.441
1161.663, 352.151
1162.891, 294.916
1164.118, 513.431
1165.345, 300.774
1166.573, 422.119
1167.800, 484.786
1169.026, 371.263
1170.253, 535.655
1171.480, 529.303
1172.706, 484.667
1173.932, 784.303
1175.158, 724.670
1176.383, 1026.033
1177.609, 1284.979
1178.834, 1529.342
1180.059, 2307.950
1181.284, 3018.806
1182.509, 4203.154
1183.734, 5947.725
1184.958, 5993.094
1186.182, 5757.468
1187.406, 4512.464
1188.630, 3087.222
1189.854, 2391.779
1191.077, 1737.992
1192.301, 1209.365
1193.524, 1079.819
1194.747, 657.000
1195.969, 805.376
1197.192, 680.978
1198.414, 320.889
1199.636, 460.255
1200.858, 449.168
1202.080, 296.521
1203.302, 466.900
1204.523, 315.998
1205.744, 400.362
1206.966, 330.158
1208.186, 226.901
1209.407, 316.270
1210.628, 250.402
1211.848, 220.754
1213.068, 399.098
1214.288, 124.775
1215.508, 358.999
1216.727, 224.453
1217.947, 110.229
1219.166, 399.547
1220.385, 184.001
1221.604, 159.525
1222.822, 462.817
1224.041, 117.090
1225.259, 262.583
1226.477, 425.847
1227.695, 210.045
1228.913, 328.288
1230.130, 232.744
1231.348, 208.632
1232.565, 279.848
1233.782, 81.403
1234.999, 153.600
1236.215, 190.784
1237.432, 6.118
1238.648, 203.295
1239.864, 206.467
1241.080, 22.739
1242.296, 319.902
1243.511, 19.180
1244.726, 196.176
1245.942, 219.329
1247.156, 29.139
1248.371, 265.282
1249.586, 188.421
1250.800, 110.046
1252.014, 341.177
1253.228, 57.304
1254.442, 173.000
1255.656, 383.115
1256.869, 3.233
1258.083, 341.562
1259.296, 244.654
1260.509, 103.579
1261.722, 176.609
1262.934, 134.633
1264.147, 205.296
1265.359, 234.271
1266.571, 32.238
1267.783, 231.714
1268.994, 252.651
1270.206, 51.545
1271.417, 271.615
1272.628, 196.479
1273.839, 68.860
1275.050, 399.700
1276.260, 5.468
1277.471, 144.672
1278.681, 339.480
1279.891, 54.695
1281.101, 208.481
1282.310, 76.258
1283.520, 23.121
1284.729, 332.121
1285.938, 133.146
1287.147, 68.469
1288.356, 201.053
1289.564, 1.627
1290.773, 237.101
1291.981, 121.643
1293.189, 79.831
1294.397, 285.836
1295.604, 95.311
1296.812, 92.739
1298.019, 201.154
1299.226, 24.443
1300.433, 193.021
1301.640, 212.386
1302.846, 86.332
1304.053, 198.264
1305.259, 28.482
1306.465, 0.679
1307.671, 59.842
1308.876, 118.991
1310.082, 175.125
1311.287, 161.232
1312.492, 2.325
1313.697, 134.764
1314.902, 155.812
1316.106, 94.830
1317.310, 193.829
1318.515, 98.775
1319.719, 189.700
1320.922, 234.598
1322.126, 43.476
1323.329, 189.327
1324.533, 107.143
1325.736, 54.937
1326.939, 179.708
1328.141, 113.455
1329.344, 14.176
1330.546, 164.867
1331.748, 41.537
1332.950, 74.179
1334.152, 120.797
1335.354, 145.606
1336.555, 202.911
1337.757, 151.403
1338.958, 17.127
1340.159, 314.309
1341.359, 117.688
1342.560, 55.040
1343.760, 303.365
1344.960, 53.668
1346.160, 220.945
1347.360, 232.309
1348.560, 36.532
1349.759, 339.729
1350.959, 72.901
1352.158, 84.050
1353.357, 334.175
1354.555, 46.724
1355.754, 202.333
1356.952, 241.369
1358.151, 91.382
1359.349, 245.371
1360.546, 141.737
1361.744, 67.689
1362.941, 386.620
1364.139, 138.761
1365.336, 306.607
1366.533, 358.438
1367.730, 112.755
1368.926, 120.994
1370.123, 195.721
1371.319, 25.399
1372.515, 190.029
1373.711, 121.411
1374.906, 36.988
1376.102, 196.549
1377.297, 12.110
1378.492, 198.257
1379.687, 340.225
1380.882, 137.349
1382.077, 397.909
1383.271, 231.060
1384.465, 17.168
1385.659, 361.287
1386.853, 150.771
1388.047, 136.179
1389.240, 391.312
1390.434, 54.043
1391.627, 251.406
1392.820, 389.626
1394.013, 15.947
1395.205, 364.771
1396.398, 348.040
1397.590, 19.119
1398.782, 353.768
1399.974, 183.482
1401.166, 132.660
1402.357, 383.373
1403.549, 48.448
1404.740, 367.082
1405.931, 293.647
1407.122, 56.296
1408.313, 224.274
1409.503, 274.783
1410.693, 11.251
1411.883, 342.365
1413.073, 184.198
1414.263, 121.910
1415.453, 307.074
1416.642, 59.346
1417.831, 177.014
1419.020, 229.254
1420.209, 90.278
1421.398, 302.296
1422.587, 73.844
1423.775, 185.846
1424.963, 454.454
1426.151, 143.950
1427.339, 108.268
1428.526, 352.615
1429.714, 216.146
1430.901, 284.662
1432.088, 423.243
1433.275, 17.291
1434.462, 306.273
1435.648, 322.917
1436.835, 110.031
1438.021, 299.189
1439.207, 211.748
1440.393, 309.783
1441.579, 437.152
1442.764, 10.100
1443.949, 317.187
1445.135, 364.062
1446.320, 48.907
1447.504, 419.332
1448.689, 341.568
1449.873, 207.024
1451.058, 282.091
1452.242, 242.781
1453.426, 248.064
1454.609, 507.599
1455.793, 42.886
1456.976, 334.007
1458.159, 361.122
1459.342, 158.393
1460.525, 392.258
1461.708, 433.584
1462.890, 113.328
1464.073, 515.171
1465.255, 108.360
1466.437, 153.209
1467.619, 440.920
1468.800, 136.134
1469.982, 311.325
1471.163, 491.907
1472.344, 120.050
1473.525, 449.234
1474.706, 308.233
1475.886, 100.371
1477.066, 487.701
1478.247, 168.912
1479.427, 138.345
1480.607, 541.341
1481.786, 104.312
1482.966, 242.464
1484.145, 399.065
1485.324, 150.917
1486.503, 312.730
1487.682, 375.436
1488.860, 13.560
1490.039, 410.955
1491.217, 257.551
1492.395, 101.263
1493.573, 466.945
1494.751, 119.734
1495.928, 199.479
1497.106, 413.241
1498.283, 80.999
1499.460, 320.722
1500.637, 232.559
1501.814, 0.369
1502.990, 277.699
1504.166, 267.112
1505.342, 6.780
1506.518, 345.722
1507.694, 94.666
1508.870, 203.597
1510.045, 392.503
1511.221, 95.373
1512.396, 173.854
1513.571, 317.110
1514.745, 4.042
1515.920, 182.133
1517.094, 228.988
1518.269, 5.481
1519.443, 185.088
1520.616, 0.000
##END=



