##NAMES=Diopside
##RRUFFID=R060171
##IDEAL CHEMISTRY=CaMgSi_2_O_6_
##LOCALITY=Jeffrey mine, Asbestos, Quebec, Canada
##OWNER=RRUFF
##SOURCE=Guy Ouellet
##DESCRIPTION=Yellowish-brown tabular crystals associated with vesuvianite, R060170
##STATUS=The identification of this mineral has been confirmed by X-ray diffraction and chemical analysis
##URL=rruff.info/R060171
##MEASURED CHEMISTRY=Ca_1.00_(Mg_0.98_Mn_0.02_)_Î£=1_Si_2.00_O_6_
##PIN_ID=L00630
##ORIENTATION=Laser parallel to (-1 0 -1). Fiducial mark perpendicular to laser is parallel to -b [0 -1 0]
109.5120, 0.0000000E+00
110.7440, 224.3184
111.9760, 6.732422
113.2080, 0.9960940
114.4400, 115.8828
115.6710, 339.3379
116.9030, 172.5635
118.1340, 178.2695
119.3650, 190.5127
120.5960, 104.5732
121.8270, 282.8955
123.0580, 267.0352
124.2880, 292.6357
125.5190, 282.4072
126.7490, 424.1143
127.9790, 450.5557
129.2090, 576.5645
130.4390, 634.9863
131.6680, 775.6865
132.8980, 839.5537
134.1270, 978.4902
135.3560, 1349.409
136.5850, 1848.237
137.8140, 2731.913
139.0430, 4376.377
140.2710, 6903.580
141.5000, 10114.48
142.7280, 11960.04
143.9560, 10301.21
145.1840, 7067.977
146.4120, 4220.293
147.6390, 2637.119
148.8670, 1685.406
150.0940, 1160.120
151.3210, 963.2295
152.5490, 767.7148
153.7750, 769.5645
155.0020, 465.8018
156.2290, 631.3604
157.4550, 353.2305
158.6810, 315.4062
159.9080, 458.8818
161.1340, 411.6523
162.3590, 589.7051
163.5850, 732.0371
164.8110, 892.6357
166.0360, 1176.498
167.2610, 1438.616
168.4860, 1165.979
169.7110, 861.5859
170.9360, 597.4297
172.1610, 526.5078
173.3850, 485.8115
174.6100, 295.3301
175.8340, 374.0615
177.0580, 397.9951
178.2820, 310.1250
179.5050, 506.4453
180.7290, 542.9512
181.9520, 702.6367
183.1760, 943.4541
184.3990, 1185.231
185.6220, 1030.982
186.8450, 753.7471
188.0670, 427.5459
189.2900, 347.3906
190.5120, 509.2939
191.7340, 464.2646
192.9560, 374.3096
194.1780, 522.4316
195.4000, 394.7100
196.6220, 452.9990
197.8430, 467.0645
199.0640, 239.9648
200.2860, 434.5850
201.5070, 261.3115
202.7270, 415.1777
203.9480, 314.1816
205.1690, 355.3252
206.3890, 299.6348
207.6090, 248.1221
208.8290, 373.7773
210.0490, 292.5781
211.2690, 339.4814
212.4890, 261.4775
213.7080, 207.5879
214.9280, 356.8516
216.1470, 263.2451
217.3660, 330.7168
218.5850, 237.2627
219.8030, 406.9590
221.0220, 319.7920
222.2400, 422.6953
223.4590, 553.6748
224.6770, 628.7256
225.8950, 916.8672
227.1120, 1239.236
228.3300, 1528.524
229.5480, 2198.083
230.7650, 2964.733
231.9820, 3754.467
233.1990, 3875.288
234.4160, 3291.184
235.6330, 2565.134
236.8490, 1550.144
238.0660, 1084.212
239.2820, 829.3369
240.4980, 534.5186
241.7140, 434.7559
242.9300, 421.0479
244.1460, 311.5039
245.3610, 380.7959
246.5770, 278.2549
247.7920, 309.7656
249.0070, 285.3262
250.2220, 299.9385
251.4370, 427.5986
252.6510, 434.3086
253.8660, 580.0664
255.0800, 769.8701
256.2940, 717.4014
257.5080, 814.5811
258.7220, 863.4111
259.9360, 634.1777
261.1490, 512.5010
262.3630, 333.1348
263.5760, 259.0439
264.7890, 95.20312
266.0020, 132.5918
267.2150, 28.18945
268.4270, 76.98438
269.6400, 177.9600
270.8520, 155.1064
272.0640, 58.41309
273.2760, 93.86914
274.4880, 226.4688
275.7000, 70.20410
276.9120, 28.06836
278.1230, 90.05469
279.3340, 4.841797
280.5450, 49.37402
281.7560, 119.6973
282.9670, 176.1240
284.1780, 145.1904
285.3880, 44.62793
286.5980, 132.0840
287.8090, 77.11523
289.0190, 85.76758
290.2290, 61.44824
291.4380, 209.4951
292.6480, 237.6201
293.8570, 159.9570
295.0670, 182.4287
296.2760, 280.7754
297.4850, 256.3369
298.6930, 537.2197
299.9020, 715.7686
301.1110, 858.0098
302.3190, 1393.685
303.5270, 2061.315
304.7350, 2289.110
305.9430, 2022.851
307.1510, 1539.312
308.3580, 1248.303
309.5660, 1153.215
310.7730, 1061.313
311.9800, 1109.462
313.1870, 1057.661
314.3940, 1502.562
315.6010, 1556.862
316.8070, 1936.321
318.0130, 2477.713
319.2200, 3311.910
320.4260, 4437.389
321.6310, 6137.910
322.8370, 8620.473
324.0430, 11399.07
325.2480, 13226.72
326.4540, 13494.40
327.6590, 11409.67
328.8640, 8359.496
330.0680, 6207.297
331.2730, 4265.129
332.4780, 3002.000
333.6820, 2260.920
334.8860, 1753.008
336.0900, 1325.004
337.2940, 1188.037
338.4980, 988.1064
339.7010, 813.0869
340.9050, 823.2256
342.1080, 655.4961
343.3110, 666.7012
344.5140, 715.0293
345.7170, 657.2959
346.9200, 789.5996
348.1220, 872.3604
349.3240, 1080.721
350.5270, 1125.113
351.7290, 1394.471
352.9310, 1722.953
354.1320, 2322.902
355.3340, 3460.010
356.5350, 4650.816
357.7370, 5874.375
358.9380, 6264.959
360.1390, 5970.566
361.3400, 5376.201
362.5400, 4727.857
363.7410, 4279.537
364.9410, 3902.459
366.1410, 3281.064
367.3410, 3479.812
368.5410, 3711.582
369.7410, 3867.371
370.9400, 3252.186
372.1400, 2598.018
373.3390, 2077.871
374.5380, 1640.742
375.7370, 1710.633
376.9360, 1495.543
378.1350, 1670.471
379.3330, 1713.211
380.5310, 2067.176
381.7300, 2446.156
382.9280, 2817.154
384.1260, 3545.168
385.3230, 4539.199
386.5210, 6398.246
387.7180, 8720.312
388.9160, 12311.39
390.1130, 15846.48
391.3100, 18045.59
392.5060, 17363.72
393.7030, 14299.86
394.9000, 10195.01
396.0960, 6991.180
397.2920, 4657.361
398.4880, 3275.557
399.6840, 2383.766
400.8800, 1883.010
402.0750, 1480.293
403.2710, 1119.623
404.4660, 933.9883
405.6610, 1011.393
406.8560, 597.8262
408.0510, 606.2930
409.2450, 574.7871
410.4400, 259.3145
411.6340, 521.8691
412.8280, 362.4492
414.0220, 272.0566
415.2160, 220.6914
416.4100, 274.3496
417.6030, 96.03320
418.7970, 276.7383
419.9900, 270.4688
421.1830, 115.2188
422.3760, 76.99219
423.5690, 101.7422
424.7610, 176.5547
425.9540, 233.3887
427.1460, 112.7578
428.3380, 138.0684
429.5300, 21.54102
430.7220, 146.4043
431.9140, 197.4434
433.1050, 38.66016
434.2970, 208.3398
435.4880, 12.25391
436.6790, 66.47070
437.8700, 2.441406
439.0610, 32.60547
440.2510, 122.4531
441.4420, 1.552734
442.6320, 119.3574
443.8220, 109.7090
445.0120, 104.1855
446.2020, 130.9043
447.3910, 71.96094
448.5810, 52.16406
449.7700, 120.5938
450.9600, 239.3848
452.1490, 47.78906
453.3370, 37.02148
454.5260, 118.8438
455.7150, 43.77734
456.9030, 20.38086
458.0910, 155.3320
459.2800, 47.81836
460.4670, 50.01562
461.6550, 151.1387
462.8430, 112.6367
464.0300, 184.4199
465.2180, 71.21289
466.4050, 179.0137
467.5920, 169.8203
468.7790, 86.63477
469.9650, 49.54688
471.1520, 76.75000
472.3380, 37.92969
473.5250, 138.1035
474.7110, 73.47656
475.8970, 124.3320
477.0820, 30.10938
478.2680, 121.8340
479.4540, 105.6504
480.6390, 139.4805
481.8240, 9.677734
483.0090, 169.1582
484.1940, 105.0020
485.3780, 154.7871
486.5630, 8.580078
487.7470, 60.37109
488.9320, 134.8320
490.1160, 71.10547
491.3000, 55.57422
492.4830, 79.25781
493.6670, 15.94531
494.8500, 6.373047
496.0340, 30.30078
497.2170, 2.683594
498.4000, 38.63086
499.5820, 78.28711
500.7650, 153.9473
501.9480, 155.3066
503.1300, 149.1816
504.3120, 149.9355
505.4940, 117.6035
506.6760, 52.27148
507.8580, 102.9395
509.0390, 134.1914
510.2210, 166.2930
511.4020, 277.0371
512.5830, 275.7832
513.7640, 323.5508
514.9450, 266.3223
516.1250, 387.0977
517.3060, 450.9023
518.4860, 375.7090
519.6660, 397.2949
520.8460, 33.32031
522.0260, 261.1191
523.2060, 223.9180
524.3850, 97.71484
525.5650, 358.5215
526.7440, 392.3262
527.9230, 359.1270
529.1020, 482.9238
530.2810, 462.0156
531.4590, 534.5273
532.6380, 479.3301
533.8160, 548.1348
534.9940, 527.9434
536.1720, 492.7539
537.3500, 305.5625
538.5270, 255.3691
539.7050, 311.1738
540.8820, 156.9746
542.0590, 139.7754
543.2360, 263.5703
544.4130, 226.3633
545.5900, 222.1523
546.7660, 195.9355
547.9430, 224.5859
549.1190, 231.9414
550.2950, 317.2617
551.4710, 255.0254
552.6470, 338.7852
553.8220, 299.5430
554.9980, 394.2949
556.1730, 669.0410
557.3480, 627.7773
558.5230, 817.5059
559.6980, 1257.232
560.8730, 1043.951
562.0470, 997.6621
563.2220, 814.3652
564.3960, 614.0605
565.5700, 639.7461
566.7440, 395.4238
567.9170, 230.0898
569.0910, 239.6484
570.2640, 338.2969
571.4380, 200.9395
572.6110, 271.5684
573.7840, 147.1934
574.9570, 85.08984
576.1290, 150.6953
577.3020, 72.28906
578.4740, 222.7305
579.6460, 76.09961
580.8180, 255.1582
581.9900, 201.5547
583.1620, 276.6895
584.3330, 98.23438
585.5040, 237.1172
586.6760, 326.9277
587.8470, 181.8574
589.0180, 187.6309
590.1880, 5.791016
591.3590, 16.90039
592.5290, 86.48828
593.7000, 165.0664
594.8700, 226.0684
596.0400, 62.68164
597.2090, 199.0254
598.3790, 26.68359
599.5490, 111.2344
600.7180, 82.60352
601.8870, 97.13281
603.0560, 165.6465
604.2250, 175.9961
605.3940, 192.2500
606.5620, 243.7578
607.7300, 272.1523
608.8990, 166.3691
610.0670, 153.5742
611.2350, 75.21875
612.4020, 50.33203
613.5700, 32.77344
614.7370, 19.25195
615.9050, 10.25195
617.0720, 79.73438
618.2390, 13.20898
619.4060, 128.5762
620.5720, 316.6660
621.7390, 148.6934
622.9050, 153.2949
624.0710, 281.9961
625.2370, 393.2402
626.4030, 357.5684
627.5690, 152.1133
628.7340, 542.7656
629.9000, 236.6094
631.0650, 404.1504
632.2300, 393.4668
633.3950, 389.5547
634.5600, 382.1035
635.7240, 480.4570
636.8890, 472.0762
638.0530, 399.6270
639.2170, 439.4199
640.3810, 553.5195
641.5450, 826.7578
642.7080, 621.4043
643.8720, 818.4336
645.0350, 680.6875
646.1980, 1179.467
647.3610, 1162.809
648.5240, 1244.766
649.6870, 1248.590
650.8490, 1668.791
652.0120, 1752.926
653.1740, 1851.848
654.3360, 2528.877
655.4980, 2838.865
656.6600, 3572.305
657.8210, 4434.129
658.9830, 5543.762
660.1440, 6800.682
661.3050, 8540.922
662.4660, 10887.52
663.6270, 13838.36
664.7870, 16908.23
665.9480, 19503.02
667.1080, 21522.72
668.2680, 21191.50
669.4280, 19320.90
670.5880, 16335.28
671.7480, 13084.24
672.9070, 10458.88
674.0670, 7933.402
675.2260, 6453.762
676.3850, 5151.738
677.5440, 4255.562
678.7030, 3368.496
679.8610, 2775.002
681.0200, 2284.479
682.1780, 2033.828
683.3360, 1679.822
684.4940, 1512.209
685.6520, 1337.609
686.8090, 1165.139
687.9670, 1099.023
689.1240, 970.2559
690.2810, 877.7207
691.4380, 853.3047
692.5950, 630.8438
693.7520, 603.2539
694.9080, 643.8203
696.0650, 439.9199
697.2210, 717.9961
698.3770, 571.8633
699.5330, 422.2793
700.6880, 716.3164
701.8440, 508.7539
702.9990, 521.7422
704.1550, 489.7051
705.3100, 347.6465
706.4650, 702.5605
707.6190, 823.4512
708.7740, 656.3398
709.9290, 694.2012
711.0830, 701.0391
712.2370, 585.8496
713.3910, 163.6348
714.5450, 326.2969
715.6980, 233.0371
716.8520, 196.4043
718.0050, 339.1074
719.1580, 58.54688
720.3110, 223.1914
721.4640, 264.8379
722.6170, 2.541016
723.7700, 289.0371
724.9220, 94.60938
726.0740, 89.15234
727.2260, 100.6953
728.3780, 274.2090
729.5300, 245.9961
730.6810, 254.3340
731.8330, 156.0488
732.9840, 49.75586
734.1350, 113.1816
735.2860, 192.4727
736.4370, 27.83984
737.5880, 120.6465
738.7380, 17.61523
739.8880, 122.9004
741.0390, 196.1543
742.1890, 162.4180
743.3380, 372.7168
744.4880, 121.9258
745.6380, 148.0996
746.7870, 239.7617
747.9360, 243.1387
749.0850, 220.7695
750.2340, 197.0371
751.3830, 128.5430
752.5310, 67.12695
753.6800, 26.14844
754.8280, 34.26953
755.9760, 28.19922
757.1240, 40.66602
758.2720, 4.562500
759.4190, 3.642578
760.5670, 9.738281
761.7140, 61.47461
762.8610, 15.23047
764.0080, 132.1836
765.1550, 2.324219
766.3020, 64.46094
767.4480, 44.36914
768.5950, 289.7285
769.7410, 126.8145
770.8870, 179.3438
772.0330, 82.00391
773.1780, 11.22852
774.3240, 172.6738
775.4690, 155.6699
776.6140, 172.9707
777.7590, 164.2422
778.9040, 127.5742
780.0490, 54.77930
781.1940, 172.9824
782.3380, 116.1602
783.4820, 257.2539
784.6260, 74.72656
785.7700, 27.63086
786.9140, 4.132813
788.0580, 201.5293
789.2010, 15.86328
790.3450, 54.14062
791.4880, 20.27344
792.6310, 158.4102
793.7730, 95.01172
794.9160, 30.23438
796.0590, 243.6562
797.2010, 183.5000
798.3430, 153.8398
799.4850, 63.42578
800.6270, 202.9414
801.7690, 1.1719000E-02
802.9100, 211.0605
804.0520, 226.5371
805.1930, 215.2461
806.3340, 82.33789
807.4750, 89.84570
808.6160, 37.42188
809.7560, 59.58398
810.8970, 9.585938
812.0370, 84.38086
813.1770, 151.7266
814.3170, 183.9746
815.4570, 153.7402
816.5960, 142.0137
817.7360, 128.4863
818.8750, 299.6602
820.0140, 122.4629
821.1530, 263.8379
822.2920, 256.0234
823.4310, 117.7891
824.5690, 234.2031
825.7070, 324.0273
826.8460, 222.9902
827.9840, 190.4219
829.1220, 42.74805
830.2590, 222.9473
831.3970, 180.2012
832.5340, 290.9570
833.6710, 330.8008
834.8080, 100.0703
835.9450, 211.0117
837.0820, 413.6309
838.2190, 195.7695
839.3550, 364.7715
840.4910, 462.8887
841.6270, 306.0508
842.7630, 535.9473
843.8990, 502.2148
845.0350, 472.3594
846.1700, 738.1562
847.3060, 789.9199
848.4410, 980.6797
849.5760, 1298.375
850.7100, 1954.033
851.8450, 2351.654
852.9800, 3177.240
854.1140, 3962.787
855.2480, 4214.297
856.3820, 3788.266
857.5160, 3361.697
858.6500, 2379.094
859.7830, 1752.428
860.9170, 1423.748
862.0500, 996.7188
863.1830, 840.6270
864.3160, 584.5410
865.4480, 589.7129
866.5810, 583.8691
867.7130, 251.0020
868.8460, 250.0312
869.9780, 434.4512
871.1100, 393.2129
872.2410, 355.1934
873.3730, 422.9219
874.5050, 382.9004
875.6360, 414.5039
876.7670, 376.0898
877.8980, 317.8789
879.0290, 296.5430
880.1590, 348.2559
881.2900, 434.6641
882.4200, 190.1406
883.5500, 251.7402
884.6800, 136.3223
885.8100, 189.8555
886.9400, 94.34766
888.0690, 116.6406
889.1990, 164.3496
890.3280, 146.6270
891.4570, 27.08398
892.5860, 10.86523
893.7140, 181.8281
894.8430, 61.05078
895.9710, 141.3047
897.1000, 288.0527
898.2280, 274.5273
899.3560, 225.3242
900.4830, 173.0781
901.6110, 163.4766
902.7380, 210.8301
903.8660, 102.9297
904.9930, 166.8516
906.1200, 292.3730
907.2460, 254.0703
908.3730, 221.3164
909.5000, 177.6113
910.6260, 148.1445
911.7520, 388.5566
912.8780, 472.9980
914.0040, 286.3574
915.1290, 424.5176
916.2550, 300.2168
917.3800, 298.4785
918.5050, 466.4570
919.6300, 212.8613
920.7550, 100.5449
921.8800, 51.65820
923.0040, 149.8438
924.1290, 150.5918
925.2530, 234.3535
926.3770, 112.4746
927.5010, 168.4844
928.6250, 64.90430
929.7480, 104.8184
930.8720, 56.39844
931.9950, 95.47461
933.1180, 62.07422
934.2410, 92.51562
935.3640, 234.4180
936.4860, 98.86914
937.6090, 79.24023
938.7310, 212.8691
939.8530, 66.34180
940.9750, 58.79492
942.0970, 64.40430
943.2180, 149.2637
944.3400, 245.1602
945.4610, 48.15820
946.5820, 66.37305
947.7030, 163.3320
948.8240, 7.929688
949.9450, 288.6504
951.0650, 155.5508
952.1860, 98.36914
953.3060, 160.3965
954.4260, 241.3691
955.5460, 94.19141
956.6650, 132.1191
957.7850, 223.8945
958.9040, 60.95898
960.0230, 192.8203
961.1420, 151.7676
962.2610, 46.05859
963.3800, 297.4141
964.4990, 66.23438
965.6170, 414.9375
966.7350, 157.8203
967.8530, 130.1133
968.9710, 259.1270
970.0890, 103.2520
971.2070, 157.5449
972.3240, 264.0293
973.4410, 451.2930
974.5580, 251.0547
975.6750, 232.0430
976.7920, 314.4570
977.9090, 190.7520
979.0250, 210.4141
980.1410, 286.6738
981.2580, 288.9023
982.3740, 279.6074
983.4890, 342.2871
984.6050, 502.5410
985.7200, 452.3457
986.8360, 307.1152
987.9510, 491.8457
989.0660, 432.5410
990.1810, 636.1973
991.2950, 548.8184
992.4100, 631.7656
993.5240, 600.3105
994.6390, 585.8281
995.7530, 933.5078
996.8660, 811.7793
997.9800, 959.9043
999.0940, 1202.277
1000.207, 1209.697
1001.320, 1692.488
1002.433, 2090.254
1003.546, 2339.477
1004.659, 2850.371
1005.772, 3720.521
1006.884, 4940.633
1007.996, 6207.713
1009.108, 8986.760
1010.220, 12251.90
1011.332, 16604.09
1012.444, 22137.50
1013.555, 25766.77
1014.666, 26692.84
1015.777, 23526.18
1016.888, 18359.95
1017.999, 13516.80
1019.110, 9816.895
1020.220, 6980.051
1021.331, 5068.861
1022.441, 3925.199
1023.551, 3190.129
1024.661, 2404.270
1025.770, 2112.053
1026.880, 1920.621
1027.989, 1684.670
1029.098, 1402.133
1030.207, 1198.469
1031.316, 904.8535
1032.425, 984.1445
1033.533, 846.1699
1034.642, 801.3535
1035.750, 675.6133
1036.858, 666.0859
1037.966, 610.0215
1039.073, 664.7754
1040.181, 642.4707
1041.288, 661.1250
1042.396, 729.4551
1043.503, 662.2363
1044.610, 628.8652
1045.716, 629.7910
1046.823, 664.5605
1047.929, 687.4922
1049.036, 826.3105
1050.142, 906.1348
1051.248, 1046.830
1052.353, 695.2168
1053.459, 568.9531
1054.564, 375.6055
1055.670, 560.2168
1056.775, 416.4023
1057.880, 330.3086
1058.985, 246.6797
1060.089, 234.1426
1061.194, 215.6562
1062.298, 285.7402
1063.402, 447.4453
1064.506, 327.4023
1065.610, 475.2070
1066.713, 281.5957
1067.817, 237.1777
1068.920, 409.6680
1070.023, 460.2227
1071.126, 231.7539
1072.229, 199.3672
1073.332, 75.15039
1074.435, 231.2598
1075.537, 254.1250
1076.639, 405.0723
1077.741, 85.58008
1078.843, 304.4805
1079.945, 130.1699
1081.046, 54.61523
1082.148, 305.0215
1083.249, 14.32422
1084.350, 208.7500
1085.451, 134.0566
1086.551, 355.4941
1087.652, 156.5430
1088.752, 261.9785
1089.853, 47.44141
1090.953, 62.43359
1092.053, 216.7988
1093.152, 24.47852
1094.252, 82.04102
1095.351, 261.4863
1096.451, 146.0957
1097.550, 10.90039
1098.649, 94.34375
1099.748, 1.476563
1100.846, 149.2715
1101.945, 45.30273
1103.043, 75.72656
1104.141, 224.5312
1105.239, 166.4238
1106.337, 139.3750
1107.434, 75.41406
1108.532, 203.0527
1109.629, 13.88281
1110.726, 124.4297
1111.823, 7.855469
1112.920, 6.646484
1114.017, 85.52930
1115.113, 81.50977
1116.210, 175.0781
1117.306, 356.1445
1118.402, 298.8926
1119.498, 525.8301
1120.593, 466.4922
1121.689, 380.8828
1122.784, 440.4453
1123.879, 184.0410
1124.974, 520.3223
1126.069, 519.5723
1127.164, 221.7852
1128.259, 71.56250
1129.353, 98.06055
1130.447, 307.1523
1131.541, 9.591797
1132.635, 149.4180
1133.729, 88.38477
1134.822, 207.5781
1135.916, 97.47266
1137.009, 404.8320
1138.102, 379.7012
1139.195, 277.7617
1140.288, 264.5645
1141.380, 234.2344
1142.473, 212.3320
1143.565, 153.0312
1144.657, 158.6914
1145.749, 7.314453
1146.841, 140.8945
1147.932, 144.4375
1149.024, 62.05664
1150.115, 232.6270
1151.206, 349.0215
1152.297, 12.39258
1153.388, 124.8984
1154.479, 294.1875
1155.569, 184.4512
1156.659, 39.79102
1157.750, 29.99023
1158.839, 137.8438
1159.929, 59.78125
1161.019, 110.4961
1162.108, 10.12109
1163.198, 10.21875
1164.287, 19.63281
1165.376, 16.55664
1166.465, 66.79883
1167.553, 358.8789
1168.642, 185.5723
1169.730, 203.2344
1170.818, 93.86523
1171.906, 57.46875
1172.994, 92.02148
1174.082, 173.5391
1175.170, 170.7500
1176.257, 288.9336
1177.344, 238.3750
1178.431, 287.7656
1179.518, 322.2305
1180.605, 229.4609
1181.691, 275.7852
1182.778, 86.08203
1183.864, 133.3320
1184.950, 32.55469
1186.036, 183.7422
1187.122, 177.9023
1188.207, 27.03125
1189.292, 9.125000
1190.378, 82.97656
1191.463, 118.7383
1192.548, 97.39062
1193.632, 306.3086
1194.717, 82.76562
1195.801, 39.09375
1196.886, 298.9492
1197.970, 19.25391
1199.054, 81.64844
1200.137, 217.0664
1201.221, 196.7617
1202.305, 62.18359
1203.388, 186.4336
1204.471, 12.17969
1205.554, 63.46094
1206.637, 118.9492
1207.719, 72.44922
1208.802, 233.0898
1209.884, 73.53125
1210.966, 219.3008
1212.048, 236.7305
1213.130, 83.91016
1214.212, 184.0547
1215.293, 145.9727
1216.374, 166.5508
1217.456, 91.74219
1218.536, 81.35547
1219.617, 103.3828
1220.698, 56.77344
1221.778, 32.58203
1222.859, 80.33203
1223.939, 55.12109
1225.019, 190.2461
1226.099, 158.0938
1227.178, 74.43359
1228.258, 291.9297
1229.337, 98.99609
1230.417, 155.5195
1231.496, 209.4062
1232.574, 174.1797
1233.653, 141.1211
1234.732, 251.6680
1235.810, 237.9414
1236.888, 149.0742
1237.966, 254.9180
1239.044, 288.2656
1240.122, 174.6758
1241.199, 403.6836
1242.277, 189.9961
1243.354, 246.2695
1244.431, 60.01172
1245.508, 313.7070
1246.585, 80.77344
1247.661, 148.2188
1248.738, 93.63281
1249.814, 151.0234
1250.890, 297.3828
1251.966, 156.7266
1253.042, 140.0352
1254.117, 313.9531
1255.193, 238.2148
1256.268, 245.4531
1257.343, 59.46484
1258.418, 115.8164
1259.493, 298.2617
1260.567, 154.3945
1261.642, 250.4141
1262.716, 399.0039
1263.790, 135.4297
1264.864, 279.2188
1265.938, 79.19531
1267.011, 377.2500
1268.085, 152.2148
1269.158, 297.1836
1270.231, 49.10156
1271.304, 56.85938
1272.377, 249.5000
1273.450, 309.8750
1274.522, 221.3633
1275.594, 280.1797
1276.666, 202.4375
1277.738, 322.6953
1278.810, 134.0547
1279.882, 294.6406
1280.953, 192.3203
1282.025, 150.8398
1283.096, 230.9102
1284.167, 236.5312
1285.238, 167.1797
1286.308, 260.8398
1287.379, 213.4102
1288.449, 275.3242
1289.519, 109.6367
1290.589, 75.64844
1291.659, 186.0469
1292.729, 193.4219
1293.798, 358.1328
1294.868, 345.3750
1295.937, 413.5312
1297.006, 348.4531
1298.075, 379.5352
1299.143, 331.6758
1300.212, 3.656250
1301.280, 401.8359
1302.348, 178.4570
1303.416, 62.40625
1304.484, 280.3242
1305.552, 4.437500
1306.620, 449.7266
1307.687, 181.9219
1308.754, 236.0977
1309.821, 176.7109
1310.888, 205.8750
1311.955, 261.3672
1313.021, 276.0195
1314.088, 228.3242
1315.154, 393.1641
1316.220, 367.9688
1317.286, 211.1133
1318.352, 457.1055
1319.417, 403.4766
1320.483, 407.9883
1321.548, 448.6406
1322.613, 452.4102
1323.678, 396.8867
1324.743, 488.0117
1325.807, 486.9727
1326.872, 284.4141
1327.936, 626.9883
1329.000, 194.8164
1330.064, 400.5586
1331.128, 532.7227
1332.191, 202.3984
1333.255, 268.2852
1334.318, 254.9141
1335.381, 517.4180
1336.444, 362.5898
1337.507, 519.4297
1338.569, 372.7695
1339.632, 634.5391
1340.694, 232.3594
1341.756, 379.6875
1342.818, 555.3203
1343.880, 470.7656
1344.941, 280.2930
1346.003, 229.5000
1347.064, 276.6797
1348.125, 260.9258
1349.186, 315.9727
1350.247, 360.9219
1351.308, 297.0625
1352.368, 315.0977
1353.428, 288.6992
1354.489, 220.1562
1355.549, 464.2656
1356.608, 337.0000
1357.668, 98.21875
1358.727, 508.6641
1359.787, 126.2812
1360.846, 283.7539
1361.905, 368.0781
1362.964, 186.7227
1364.022, 289.3555
1365.081, 432.7109
1366.139, 342.3359
1367.197, 243.9570
1368.255, 118.4062
1369.313, 163.0156
1370.371, 151.5117
1371.428, 240.0977
1372.486, 223.2305
1373.543, 354.6328
1374.600, 245.5938
1375.657, 356.8438
1376.713, 419.8516
1377.770, 389.5586
1378.826, 191.5742
1379.882, 359.8086
1380.938, 260.9414
1381.994, 141.3438
1383.050, 189.7383
1384.106, 246.1250
1385.161, 177.2734
1386.216, 206.9219
1387.271, 137.2969
1388.326, 173.4688
1389.381, 176.8438
1390.435, 89.21094
1391.490, 366.3125
1392.544, 29.32812
1393.598, 164.4766
1394.652, 548.8242
1395.705, 105.8945
1396.759, 376.1797
1397.812, 216.8086
1398.866, 156.4727
1399.919, 202.7383
1400.972, 85.00781
1402.024, 57.26953
1403.077, 116.5273
1404.129, 117.7812
1405.181, 115.0391
1406.233, 185.0586
1407.285, 346.3281
1408.337, 334.5820
1409.389, 204.6719
1410.440, 258.9297
1411.491, 24.80469
1412.542, 131.3398
1413.593, 392.5938
1414.644, 45.15234
1415.695, 320.1328
1416.745, 74.15234
1417.795, 222.0312
1418.845, 327.3555
1419.895, 25.69531
1420.945, 155.0312
1421.995, 222.3906
1423.044, 168.2305
1424.093, 379.3164
1425.142, 205.7383
1426.191, 211.4844
1427.240, 129.9258
1428.289, 161.2969
1429.337, 230.8008
1430.385, 303.6133
1431.433, 360.0117
1432.481, 256.3984
1433.529, 147.8281
1434.577, 69.52734
1435.624, 62.09375
1436.672, 232.2812
1437.719, 96.73047
1438.766, 318.4141
1439.812, 80.87109
1440.859, 207.3555
1441.905, 435.8594
1442.952, 310.3711
1443.998, 106.3438
1445.044, 295.6602
1446.090, 340.1719
1447.135, 434.3242
1448.181, 375.4141
1449.226, 395.8633
1450.271, 200.4258
1451.316, 176.9922
1452.361, 156.6172
1453.405, 88.24609
1454.450, 262.8750
1455.494, 254.5547
1456.538, 223.2461
1457.582, 360.9297
1458.626, 169.6484
1459.670, 295.3984
1460.713, 71.14844
1461.757, 283.9141
1462.800, 596.6836
1463.843, 60.47266
1464.886, 121.2695
1465.928, 517.0703
1466.971, 204.7188
1468.013, 96.50781
1469.055, 339.3242
1470.097, 303.1484
1471.139, 238.9727
1472.181, 98.76172
1473.222, 301.6016
1474.263, 313.4414
1475.305, 255.2969
1476.346, 181.1680
1477.386, 183.0508
1478.427, 215.9453
1479.468, 111.8477
1480.508, 314.7695
1481.548, 292.7031
1482.588, 271.4961
1483.628, 254.1445
1484.668, 392.0273
1485.707, 309.7852
1486.747, 449.6094
1487.786, 556.2891
1488.825, 293.8125
1489.864, 427.6719
1490.902, 485.5469
1491.941, 392.4297
1492.979, 571.2344
1494.017, 410.1250
1495.055, 507.1094
1496.093, 452.6719
1497.131, 519.1289
1498.168, 294.0195
1499.206, 258.8867
1500.243, 91.55469
1501.280, 921.2383
1502.317, 694.9258
1503.354, 574.6328
1504.390, 642.1797
1505.426, 376.3438
1506.463, 336.7812
1507.499, 366.0859
1508.535, 310.5508
1509.570, 477.0039
1510.606, 313.4297
1511.641, 594.8828
1512.676, 506.3438
1513.711, 262.6680
1514.746, 154.1055
1515.781, 268.5273
1516.816, 334.9336
1517.850, 381.0352
1518.884, 307.9961
1519.918, 618.3281
1520.952, 469.5742
1521.986, 447.8633
1523.019, 148.0664
1524.053, 252.2891
1525.086, 386.4805
1526.119, 337.6289
1527.152, 177.7422
1528.185, 591.8086
1529.217, 150.0547
1530.250, 245.4375
1531.282, 474.7930
1532.314, 250.1211
1533.346, 261.4375
1534.377, 515.8086
1535.409, 260.2070
1536.440, 124.8203
1537.472, 517.6602
1538.503, 133.5039
1539.534, 306.6719
1540.564, 202.9805
1541.595, 199.3398
1542.625, 393.7422
1543.656, 227.1992
1544.686, 158.7148
1545.716, 136.3047
1546.745, 165.0039
1547.775, 37.79297
1548.804, 69.68750
1549.834, 3.718750
1550.863, 70.40625
1551.892, 131.2539
1552.920, 316.7812
1553.949, 213.5156
1554.977, 471.4727
1556.006, 235.6602
1557.034, 437.0664
1558.062, 62.69531
1559.089, 146.5938
1560.117, 20.20703
1561.144, 120.4180
1562.172, 70.56250
1563.199, 267.9883
1564.226, 227.6719
1565.252, 150.5781
1566.279, 279.9141
1567.305, 24.22656
1568.332, 150.3633
1569.358, 0.2421880
1570.384, 105.4961
1571.409, 42.67578
1572.435, 0.0000000E+00
##END=



