##NAMES=Edenite
##RRUFFID=R060029
##IDEAL CHEMISTRY=NaCa_2_Mg_5_(Si_7_Al)O_22_(OH)_2_
##LOCALITY=Renfrew County, Ontario, Canada
##OWNER=RRUFF
##SOURCE=University of Arizona Mineral Museum
##DESCRIPTION=Black prismatic
##STATUS=The identification of this mineral has been confirmed by X-ray diffraction and chemical analysis
##URL=rruff.info/R060029
##MEASURED CHEMISTRY=(Na_0.62_K_0.34_[box]_0.04_)(Ca_0.86_Na_0.14_)_2_(Mg_0.57_Fe^2+^_0.30_Fe^3+^_0.07_Al_0.05_Ti_0.01_Mn_0.01_)_5_(Si_6.61_Al_1.39_)O_22_((OH)_0.69_F_0.31_)_2_
##PIN_ID=M00412
##ORIENTATION=Laser parallel to c* (0 0 1). Fiducial mark perpendicular to laser is parallel to a [1 0 0]
132.8980, 0.0000000E+00
134.1270, 313.7812
135.3560, 234.9717
136.5850, 35.37891
137.8140, 123.8486
139.0430, 159.3301
140.2710, 461.1455
141.5000, 349.9170
142.7280, 458.5557
143.9560, 854.1660
145.1840, 1688.665
146.4120, 2944.547
147.6390, 4519.758
148.8670, 6651.600
150.0940, 9677.655
151.3210, 14064.78
152.5490, 18751.09
153.7750, 23328.73
155.0020, 25774.95
156.2290, 25542.04
157.4550, 22811.40
158.6810, 18959.50
159.9080, 14722.87
161.1340, 11525.09
162.3590, 9074.801
163.5850, 7209.670
164.8110, 6178.406
166.0360, 5132.753
167.2610, 4113.489
168.4860, 3744.627
169.7110, 3436.301
170.9360, 3604.277
172.1610, 3476.195
173.3850, 3719.771
174.6100, 3804.771
175.8340, 4396.010
177.0580, 4627.320
178.2820, 5198.565
179.5050, 5806.626
180.7290, 5807.397
181.9520, 5875.789
183.1760, 5663.717
184.3990, 5345.109
185.6220, 5168.897
186.8450, 4771.025
188.0670, 4292.438
189.2900, 3774.082
190.5120, 3539.903
191.7340, 3394.859
192.9560, 3185.899
194.1780, 3243.982
195.4000, 3309.070
196.6220, 3707.123
197.8430, 3803.107
199.0640, 4107.988
200.2860, 4676.746
201.5070, 5560.194
202.7270, 6206.586
203.9480, 6534.725
205.1690, 6747.395
206.3890, 7343.572
207.6090, 8088.243
208.8290, 9383.367
210.0490, 11062.13
211.2690, 13163.70
212.4890, 15317.15
213.7080, 18159.56
214.9280, 21130.00
216.1470, 24121.51
217.3660, 27963.13
218.5850, 31465.89
219.8030, 35158.82
221.0220, 38157.95
222.2400, 40529.30
223.4590, 41492.88
224.6770, 40855.72
225.8950, 39878.84
227.1120, 36888.25
228.3300, 34598.96
229.5480, 31725.96
230.7650, 28962.27
231.9820, 26276.89
233.1990, 23997.80
234.4160, 21984.03
235.6330, 20146.55
236.8490, 18486.40
238.0660, 17020.56
239.2820, 15397.07
240.4980, 13991.93
241.7140, 12872.11
242.9300, 11579.56
244.1460, 10588.28
245.3610, 9805.271
246.5770, 9031.520
247.7920, 8221.027
249.0070, 7907.792
250.2220, 7226.800
251.4370, 6899.054
252.6510, 6388.544
253.8660, 6237.268
255.0800, 5956.223
256.2940, 5806.404
257.5080, 5613.803
258.7220, 6292.422
259.9360, 5632.839
261.1490, 5844.287
262.3630, 4754.525
263.5760, 4390.962
264.7890, 3833.291
266.0020, 4393.412
267.2150, 4128.576
268.4270, 4332.094
269.6400, 4431.535
270.8520, 4241.331
272.0640, 4610.309
273.2760, 4853.977
274.4880, 5109.767
275.7000, 5553.911
276.9120, 6061.924
278.1230, 6384.887
279.3340, 6655.495
280.5450, 6986.860
281.7560, 7363.328
282.9670, 8121.355
284.1780, 8504.513
285.3880, 9132.235
286.5980, 9468.447
287.8090, 9813.004
289.0190, 10380.78
290.2290, 10882.67
291.4380, 11217.59
292.6480, 11363.45
293.8570, 11794.18
295.0670, 11896.73
296.2760, 12292.03
297.4850, 12056.05
298.6930, 12253.73
299.9020, 12052.04
301.1110, 11419.94
302.3190, 11191.40
303.5270, 10893.38
304.7350, 10421.86
305.9430, 9992.814
307.1510, 9544.248
308.3580, 9112.144
309.5660, 8673.541
310.7730, 8261.456
311.9800, 7523.859
313.1870, 7257.778
314.3940, 6652.176
315.6010, 6160.061
316.8070, 5855.387
318.0130, 5500.104
319.2200, 5102.209
320.4260, 4754.516
321.6310, 4164.442
322.8370, 4037.506
324.0430, 3688.816
325.2480, 3422.356
326.4540, 3256.116
327.6590, 2916.086
328.8640, 2670.261
330.0680, 2654.631
331.2730, 2385.191
332.4780, 2401.937
333.6820, 2186.857
334.8860, 2086.951
336.0900, 2075.375
337.2940, 1953.723
338.4980, 1974.473
339.7010, 1865.956
340.9050, 2019.824
342.1080, 2033.828
343.3110, 2096.833
344.5140, 2055.365
345.7170, 2077.957
346.9200, 2135.479
348.1220, 2188.234
349.3240, 2254.943
350.5270, 2290.721
351.7290, 2361.560
352.9310, 2460.465
354.1320, 2567.435
355.3340, 2926.474
356.5350, 3000.582
357.7370, 3139.759
358.9380, 3045.005
360.1390, 3289.316
361.3400, 3175.697
362.5400, 3390.145
363.7410, 3320.838
364.9410, 3280.234
366.1410, 3285.875
367.3410, 3263.575
368.5410, 3259.756
369.7410, 3312.155
370.9400, 3311.031
372.1400, 3284.963
373.3390, 3417.946
374.5380, 3294.980
375.7370, 3285.063
376.9360, 3147.193
378.1350, 3028.370
379.3330, 3033.590
380.5310, 2761.852
381.7300, 2622.153
382.9280, 2551.492
384.1260, 2212.866
385.3230, 2012.274
386.5210, 1738.714
387.7180, 1696.183
388.9160, 1341.680
390.1130, 1283.203
391.3100, 871.7500
392.5060, 908.3213
393.7030, 624.9141
394.9000, 531.5244
396.0960, 252.1543
397.2920, 110.8008
398.4880, 55.46289
399.6840, 23.13574
400.8800, 137.1836
402.0750, 329.5225
403.2710, 298.9229
404.4660, 497.3799
405.6610, 510.9414
406.8560, 551.6123
408.0510, 751.4072
409.2450, 724.3760
410.4400, 746.5146
411.6340, 783.8389
412.8280, 859.4629
414.0220, 785.4824
415.2160, 782.9512
416.4100, 817.9766
417.6030, 679.5830
418.7970, 599.7695
419.9900, 337.5059
421.1830, 310.6484
422.3760, 165.0400
423.5690, 177.5752
424.7610, 434.3057
425.9540, 593.1543
427.1460, 812.1113
428.3380, 1030.179
429.5300, 1298.328
430.7220, 1334.556
431.9140, 1505.852
433.1050, 1431.211
434.2970, 1446.630
435.4880, 1496.101
436.6790, 1288.619
437.8700, 1355.182
439.0610, 1530.784
440.2510, 1345.421
441.4420, 1394.090
442.6320, 1429.788
443.8220, 1412.512
445.0120, 1339.258
446.2020, 1359.022
447.3910, 1514.805
448.5810, 1435.610
449.7700, 1323.601
450.9600, 1562.031
452.1490, 1442.953
453.3370, 1430.988
454.5260, 1411.844
455.7150, 1267.278
456.9030, 1252.353
458.0910, 1325.131
459.2800, 1087.943
460.4670, 1105.854
461.6550, 1112.979
462.8430, 1021.223
464.0300, 1011.196
465.2180, 901.0352
466.4050, 1012.529
467.5920, 917.1055
468.7790, 898.6494
469.9650, 802.1641
471.1520, 745.7100
472.3380, 687.1523
473.5250, 640.6250
474.7110, 540.1133
475.8970, 535.6045
477.0820, 522.0918
478.2680, 444.6025
479.4540, 515.1084
480.6390, 441.6289
481.8240, 441.1465
483.0090, 507.6636
484.1940, 376.1738
485.3780, 434.6475
486.5630, 379.1001
487.7470, 432.4819
488.9320, 382.7949
490.1160, 477.0259
491.3000, 589.1875
492.4830, 759.2900
493.6670, 717.3301
494.8500, 837.3081
496.0340, 979.2217
497.2170, 955.0718
498.4000, 1170.856
499.5820, 1097.576
500.7650, 1280.229
501.9480, 1388.814
503.1300, 1496.332
504.3120, 1621.780
505.4940, 1597.160
506.6760, 1666.469
507.8580, 1720.708
509.0390, 1862.875
510.2210, 1953.970
511.4020, 2049.992
512.5830, 2236.940
513.7640, 2515.815
514.9450, 2559.614
516.1250, 2652.338
517.3060, 2950.986
518.4860, 3289.557
519.6660, 3590.050
520.8460, 4190.466
522.0260, 4478.803
523.2060, 5199.061
524.3850, 5697.238
525.5650, 6285.336
526.7440, 6850.353
527.9230, 7442.289
529.1020, 7953.142
530.2810, 8445.914
531.4590, 8753.672
532.6380, 8986.996
533.8160, 9089.727
534.9940, 9128.163
536.1720, 8934.516
537.3500, 8740.780
538.5270, 8510.961
539.7050, 8308.055
540.8820, 8032.062
542.0590, 7662.837
543.2360, 7376.280
544.4130, 7186.509
545.5900, 6901.896
546.7660, 6708.476
547.9430, 6334.884
549.1190, 5977.651
550.2950, 5931.422
551.4710, 5552.293
552.6470, 5055.392
553.8220, 4836.836
554.9980, 4393.395
556.1730, 4101.399
557.3480, 3884.029
558.5230, 3524.758
559.6980, 3280.212
560.8730, 3014.984
562.0470, 2801.363
563.2220, 2617.929
564.3960, 2468.029
565.5700, 2319.438
566.7440, 2223.813
567.9170, 2063.149
569.0910, 2014.465
570.2640, 1876.735
571.4380, 1858.959
572.6110, 1628.157
573.7840, 1705.312
574.9570, 1667.422
576.1290, 1506.493
577.3020, 1580.517
578.4740, 1491.496
579.6460, 1438.428
580.8180, 1432.316
581.9900, 1335.172
583.1620, 1275.000
584.3330, 1087.808
585.5040, 940.5791
586.6760, 731.2930
587.8470, 552.9512
589.0180, 478.5435
590.1880, 139.0698
591.3590, 101.4678
592.5290, 114.2632
593.7000, 258.2476
594.8700, 206.5625
596.0400, 390.1821
597.2090, 288.2036
598.3790, 394.5742
599.5490, 283.3501
600.7180, 141.4736
601.8870, 176.8701
603.0560, 51.55859
604.2250, 79.47314
605.3940, 155.9277
606.5620, 288.3145
607.7300, 567.6836
608.8990, 663.5688
610.0670, 1053.098
611.2350, 1111.010
612.4020, 1286.681
613.5700, 1355.600
614.7370, 1584.349
615.9050, 2025.859
617.0720, 2145.300
618.2390, 2526.947
619.4060, 3030.970
620.5720, 3242.114
621.7390, 3725.127
622.9050, 4227.751
624.0710, 4584.804
625.2370, 5003.573
626.4030, 5591.572
627.5690, 6040.890
628.7340, 6495.281
629.9000, 7009.063
631.0650, 7438.514
632.2300, 7937.315
633.3950, 8514.699
634.5600, 8916.448
635.7240, 9399.113
636.8890, 9907.698
638.0530, 10478.20
639.2170, 11114.62
640.3810, 11727.95
641.5450, 12507.20
642.7080, 13566.37
643.8720, 14217.46
645.0350, 14819.47
646.1980, 15971.39
647.3610, 17101.23
648.5240, 17973.99
649.6870, 19175.67
650.8490, 20213.27
652.0120, 21598.79
653.1740, 23010.22
654.3360, 24576.57
655.4980, 26587.85
656.6600, 28778.04
657.8210, 31070.96
658.9830, 34097.20
660.1440, 36486.15
661.3050, 39666.02
662.4660, 43131.83
663.6270, 46256.55
664.7870, 49105.20
665.9480, 51883.77
667.1080, 54116.25
668.2680, 54776.65
669.4280, 55530.00
670.5880, 54715.24
671.7480, 53182.43
672.9070, 50830.53
674.0670, 47882.56
675.2260, 44453.50
676.3850, 40465.39
677.5440, 36837.20
678.7030, 33036.93
679.8610, 29570.58
681.0200, 26657.16
682.1780, 24073.68
683.3360, 21371.15
684.4940, 19436.62
685.6520, 17514.08
686.8090, 15852.58
687.9670, 14553.13
689.1240, 13110.72
690.2810, 11925.43
691.4380, 10544.23
692.5950, 9612.146
693.7520, 8511.180
694.9080, 7583.352
696.0650, 6890.648
697.2210, 6041.069
698.3770, 5388.625
699.5330, 4807.283
700.6880, 4243.025
701.8440, 3743.808
702.9990, 3545.582
704.1550, 3129.883
705.3100, 3060.435
706.4650, 2579.492
707.6190, 2430.828
708.7740, 2277.484
709.9290, 2148.105
711.0830, 1936.229
712.2370, 1933.919
713.3910, 1765.918
714.5450, 1744.591
715.6980, 1745.315
716.8520, 1600.661
718.0050, 1585.548
719.1580, 1568.339
720.3110, 1472.587
721.4640, 1437.372
722.6170, 1424.698
723.7700, 1360.169
724.9220, 1344.428
726.0740, 1394.691
727.2260, 1280.608
728.3780, 1270.904
729.5300, 1209.735
730.6810, 1124.384
731.8330, 1095.478
732.9840, 889.3208
734.1350, 1000.276
735.2860, 899.5850
736.4370, 799.1846
737.5880, 609.0088
738.7380, 600.7266
739.8880, 531.2710
741.0390, 410.5259
742.1890, 460.5845
743.3380, 263.8359
744.4880, 243.1406
745.6380, 228.7036
746.7870, 175.1006
747.9360, 126.4399
749.0850, 27.71533
750.2340, 5.103516
751.3830, 12.96826
752.5310, 106.0591
753.6800, 73.24658
754.8280, 50.57715
755.9760, 152.0371
757.1240, 83.67773
758.2720, 133.4604
759.4190, 108.4116
760.5670, 122.5142
761.7140, 76.77246
762.8610, 59.16602
764.0080, 79.67139
765.1550, 71.69629
766.3020, 116.0176
767.4480, 129.2969
768.5950, 267.5439
769.7410, 197.7603
770.8870, 309.9375
772.0330, 390.0820
773.1780, 415.1938
774.3240, 544.2734
775.4690, 566.3223
776.6140, 593.3403
777.7590, 641.3281
778.9040, 660.2876
780.0490, 718.2178
781.1940, 714.1201
782.3380, 817.9946
783.4820, 863.8433
784.6260, 926.6660
785.7700, 870.4629
786.9140, 869.2354
788.0580, 929.9834
789.2010, 904.7095
790.3450, 959.4111
791.4880, 923.0918
792.6310, 890.7505
793.7730, 912.3892
794.9160, 1013.008
796.0590, 1002.606
797.2010, 976.1865
798.3430, 914.7480
799.4850, 976.2915
800.6270, 1005.818
801.7690, 931.3281
802.9100, 992.8228
804.0520, 1017.301
805.1930, 1005.766
806.3340, 1086.216
807.4750, 1120.652
808.6160, 989.0747
809.7560, 987.4858
810.8970, 1085.884
812.0370, 1159.271
813.1770, 1055.648
814.3170, 1091.014
815.4570, 1084.370
816.5960, 1114.717
817.7360, 1084.737
818.8750, 1073.384
820.0140, 1012.706
821.1530, 958.0205
822.2920, 908.3271
823.4310, 772.6279
824.5690, 846.9209
825.7070, 683.2065
826.8460, 770.4854
827.9840, 604.7563
829.1220, 482.0195
830.2590, 474.2749
831.3970, 321.5215
832.5340, 321.7593
833.6710, 303.9883
834.8080, 225.2080
835.9450, 167.4170
837.0820, 55.61572
838.2190, 23.44092
839.3550, 26.01807
840.4910, 41.86426
841.6270, 106.7393
842.7630, 101.6729
843.8990, 172.6616
845.0350, 82.74170
846.1700, 84.86377
847.3060, 162.0278
848.4410, 110.2725
849.5760, 100.5693
850.7100, 131.9121
851.8450, 101.3594
852.9800, 115.7368
854.1140, 110.2573
855.2480, 129.7979
856.3820, 172.3916
857.5160, 200.0586
858.6500, 227.8135
859.7830, 169.6685
860.9170, 86.59180
862.0500, 100.5420
863.1830, 32.52441
864.3160, 54.51611
865.4480, 13.52148
866.5810, 107.5010
867.7130, 2.525391
868.8460, 20.64307
869.9780, 150.8916
871.1100, 120.2593
872.2410, 147.7949
873.3730, 212.4727
874.5050, 290.3208
875.6360, 407.3105
876.7670, 427.4053
877.8980, 576.6152
879.0290, 674.9077
880.1590, 676.7324
881.2900, 891.4756
882.4200, 980.1548
883.5500, 1105.251
884.6800, 1336.637
885.8100, 1415.106
886.9400, 1553.691
888.0690, 1785.496
889.1990, 1845.919
890.3280, 2066.510
891.4570, 2071.632
892.5860, 2338.501
893.7140, 2254.771
894.8430, 2547.042
895.9710, 2701.006
897.1000, 2772.221
898.2280, 2971.450
899.3560, 3178.937
900.4830, 3220.301
901.6110, 3431.923
902.7380, 3720.490
903.8660, 3908.312
904.9930, 4061.266
906.1200, 4225.929
907.2460, 4475.074
908.3730, 4638.276
909.5000, 4722.542
910.6260, 5025.867
911.7520, 5284.256
912.8780, 5359.545
914.0040, 5501.217
915.1290, 5593.777
916.2550, 5653.389
917.3800, 5828.062
918.5050, 5797.791
919.6300, 5832.582
920.7550, 5963.438
921.8800, 5892.349
923.0040, 5947.332
924.1290, 5779.375
925.2530, 5723.472
926.3770, 5688.625
927.5010, 5448.822
928.6250, 5218.082
929.7480, 5020.387
930.8720, 4872.740
931.9950, 4796.158
933.1180, 4689.619
934.2410, 4570.140
935.3640, 4439.701
936.4860, 4424.311
937.6090, 4222.966
938.7310, 4138.663
939.8530, 4109.407
940.9750, 4218.191
942.0970, 4098.022
943.2180, 4011.890
944.3400, 3816.791
945.4610, 3829.729
946.5820, 3951.707
947.7030, 3810.721
948.8240, 3819.773
949.9450, 3812.862
951.0650, 3802.989
952.1860, 3778.154
953.3060, 3880.356
954.4260, 3827.592
955.5460, 3825.864
956.6650, 3799.369
957.7850, 3778.559
958.9040, 3730.893
960.0230, 3743.309
961.1420, 3807.760
962.2610, 3787.249
963.3800, 3711.772
964.4990, 3656.332
965.6170, 3720.927
966.7350, 3688.556
967.8530, 3695.221
968.9710, 3709.922
970.0890, 3963.658
971.2070, 3869.078
972.3240, 3821.765
973.4410, 3809.063
974.5580, 3688.948
975.6750, 3594.325
976.7920, 3821.422
977.9090, 3775.981
979.0250, 3780.230
980.1410, 3781.128
981.2580, 3771.030
982.3740, 4034.398
983.4890, 4050.170
984.6050, 4103.605
985.7200, 4311.336
986.8360, 4354.984
987.9510, 4452.985
989.0660, 4545.413
990.1810, 4779.909
991.2950, 4940.919
992.4100, 5166.363
993.5240, 5273.241
994.6390, 5438.941
995.7530, 5863.054
996.8660, 6012.686
997.9800, 6300.687
999.0940, 6727.158
1000.207, 6867.651
1001.320, 7348.403
1002.433, 7676.199
1003.546, 7864.112
1004.659, 8296.065
1005.772, 8588.062
1006.884, 8918.098
1007.996, 9321.174
1009.108, 9746.290
1010.220, 10178.44
1011.332, 10349.63
1012.444, 10766.86
1013.555, 11097.13
1014.666, 11569.43
1015.777, 11854.79
1016.888, 12110.17
1017.999, 12251.64
1019.110, 12530.15
1020.220, 12901.33
1021.331, 13037.20
1022.441, 13277.14
1023.551, 13263.26
1024.661, 13658.19
1025.770, 13460.49
1026.880, 13560.67
1027.989, 13691.94
1029.098, 13588.32
1030.207, 13947.56
1031.316, 13764.46
1032.425, 14145.55
1033.533, 14072.54
1034.642, 14055.61
1035.750, 13956.83
1036.858, 14163.96
1037.966, 14262.68
1039.073, 14173.66
1040.181, 14413.63
1041.288, 14363.09
1042.396, 14592.55
1043.503, 14361.68
1044.610, 14486.00
1045.716, 14658.87
1046.823, 14504.68
1047.929, 14856.80
1049.036, 14549.62
1050.142, 14788.64
1051.248, 14662.48
1052.353, 14739.03
1053.459, 14917.20
1054.564, 14633.29
1055.670, 14510.61
1056.775, 14302.83
1057.880, 14108.00
1058.985, 14120.47
1060.089, 13620.69
1061.194, 13371.37
1062.298, 12954.52
1063.402, 12418.35
1064.506, 12075.30
1065.610, 11501.11
1066.713, 11004.50
1067.817, 10408.54
1068.920, 10062.41
1070.023, 9536.406
1071.126, 9206.938
1072.229, 8690.697
1073.332, 8192.813
1074.435, 8060.226
1075.537, 7451.989
1076.639, 7091.811
1077.741, 6817.706
1078.843, 6545.650
1079.945, 6157.935
1081.046, 5890.293
1082.148, 5583.455
1083.249, 5356.788
1084.350, 5157.252
1085.451, 4940.230
1086.551, 4819.038
1087.652, 4546.775
1088.752, 4501.697
1089.853, 4341.555
1090.953, 4098.420
1092.053, 4001.443
1093.152, 3911.421
1094.252, 3777.572
1095.351, 3665.677
1096.451, 3595.070
1097.550, 3420.640
1098.649, 3341.121
1099.748, 3248.951
1100.846, 3093.670
1101.945, 3004.529
1103.043, 2918.256
1104.141, 2804.862
1105.239, 2656.462
1106.337, 2576.950
1107.434, 2436.474
1108.532, 2314.967
1109.629, 2199.605
1110.726, 2089.136
1111.823, 2079.763
1112.920, 1926.447
1114.017, 1880.979
1115.113, 1820.756
1116.210, 1692.446
1117.306, 1597.195
1118.402, 1425.939
1119.498, 1448.680
1120.593, 1346.254
1121.689, 1222.947
1122.784, 1199.551
1123.879, 1104.221
1124.974, 1067.942
1126.069, 1008.675
1127.164, 921.3989
1128.259, 885.5107
1129.353, 756.2686
1130.447, 687.2925
1131.541, 638.2295
1132.635, 497.8364
1133.729, 527.7124
1134.822, 424.4131
1135.916, 333.1001
1137.009, 235.9253
1138.102, 238.2515
1139.195, 211.4319
1140.288, 262.0835
1141.380, 131.0061
1142.473, 112.6350
1143.565, 116.4082
1144.657, 74.97510
1145.749, 74.10425
1146.841, 46.13818
1147.932, 57.65137
1149.024, 49.31104
1150.115, 52.61279
1151.206, 12.70020
1152.297, 8.731201
1153.388, 10.13916
1154.479, 62.47778
1155.569, 56.15039
1156.659, 58.87231
1157.750, 18.55713
1158.839, 67.35718
1159.929, 16.20654
1161.019, 76.13086
1162.108, 67.12793
1163.198, 99.18774
1164.287, 126.3418
1165.376, 92.55933
1166.465, 28.90332
1167.553, 9.300537
1168.642, 16.35132
1169.730, 50.23706
1170.818, 63.80054
1171.906, 85.44214
1172.994, 115.1746
1174.082, 92.01465
1175.170, 108.9500
1176.257, 83.99194
1177.344, 97.12695
1178.431, 36.36450
1179.518, 61.67334
1180.605, 79.06787
1181.691, 58.55859
1182.778, 84.13501
1183.864, 92.32446
1184.950, 57.59375
1186.036, 107.4646
1187.122, 72.45044
1188.207, 38.53418
1189.292, 57.69849
1190.378, 12.04565
1191.463, 74.26611
1192.548, 0.6784670
1193.632, 10.15552
1194.717, 74.70117
1195.801, 10.67212
1196.886, 49.03882
1197.970, 27.15820
1199.054, 4.699219
1200.137, 10.52856
1201.221, 20.75391
1202.305, 0.3339840
1203.388, 69.21509
1204.471, 7.948730
1205.554, 126.8118
1206.637, 116.5308
1207.719, 104.2114
1208.802, 45.84912
1209.884, 72.43311
1210.966, 70.97021
1212.048, 84.45898
1213.130, 75.90161
1214.212, 71.29639
1215.293, 111.7783
1216.374, 148.1167
1217.456, 167.3745
1218.536, 125.5896
1219.617, 143.7603
1220.698, 143.8875
1221.778, 118.9707
1222.859, 126.0081
1223.939, 107.0005
1225.019, 190.0029
1226.099, 170.9053
1227.178, 225.7632
1228.258, 248.5793
1229.337, 166.3538
1230.417, 194.0837
1231.496, 161.9160
1232.574, 194.5596
1233.653, 224.1592
1234.732, 226.7158
1235.810, 254.2290
1236.888, 247.6824
1237.966, 257.9153
1239.044, 229.5212
1240.122, 260.8623
1241.199, 248.1636
1242.277, 238.4272
1243.354, 278.6399
1244.431, 228.8091
1245.508, 255.0225
1246.585, 245.2214
1247.661, 252.3096
1248.738, 257.4795
1249.814, 320.4238
1250.890, 277.4438
1251.966, 322.3110
1253.042, 295.1218
1254.117, 292.0317
1255.193, 299.8550
1256.268, 346.5310
1257.343, 217.2700
1258.418, 303.8523
1259.493, 300.5259
1260.567, 224.0295
1261.642, 353.4717
1262.716, 274.9517
1263.790, 372.3015
1264.864, 394.6060
1265.938, 279.8762
1267.011, 368.0916
1268.085, 270.3042
1269.158, 314.4265
1270.231, 246.6289
1271.304, 313.9741
1272.377, 275.9561
1273.450, 329.8909
1274.522, 302.9307
1275.594, 364.9050
1276.666, 370.7363
1277.738, 284.4878
1278.810, 310.1560
1279.882, 333.8835
1280.953, 342.1169
1282.025, 352.4626
1283.096, 343.8672
1284.167, 344.9124
1285.238, 321.4221
1286.308, 296.4238
1287.379, 314.6311
1288.449, 307.8125
1289.519, 340.9397
1290.589, 330.1965
1291.659, 306.8572
1292.729, 333.0635
1293.798, 285.9727
1294.868, 346.6980
1295.937, 360.4866
1297.006, 350.1050
1298.075, 325.0291
1299.143, 284.7251
1300.212, 326.3748
1301.280, 316.5205
1302.348, 321.6577
1303.416, 277.3032
1304.484, 332.5537
1305.552, 255.4824
1306.620, 312.2087
1307.687, 248.6196
1308.754, 344.3157
1309.821, 271.7947
1310.888, 324.5366
1311.955, 268.4624
1313.021, 238.7727
1314.088, 272.1313
1315.154, 214.2476
1316.220, 209.4524
1317.286, 212.8120
1318.352, 258.7285
1319.417, 256.8896
1320.483, 327.7781
1321.548, 229.9629
1322.613, 223.6970
1323.678, 149.0371
1324.743, 155.6240
1325.807, 175.3870
1326.872, 212.5967
1327.936, 152.0959
1329.000, 178.3384
1330.064, 232.1118
1331.128, 137.5293
1332.191, 218.5747
1333.255, 208.3022
1334.318, 255.6628
1335.381, 614.8362
1336.444, 215.0283
1337.507, 241.1501
1338.569, 765.9651
1339.632, 724.6382
1340.694, 769.4839
1341.756, 216.1423
1342.818, 91.64722
1343.880, 114.6194
1344.941, 211.7417
1346.003, 164.9138
1347.064, 213.8799
1348.125, 132.8916
1349.186, 193.8774
1350.247, 144.6804
1351.308, 156.5054
1352.368, 104.1340
1353.428, 145.1875
1354.489, 138.1318
1355.549, 146.2766
1356.608, 162.4885
1357.668, 215.3284
1358.727, 78.33105
1359.787, 123.5181
1360.846, 149.5012
1361.905, 232.4653
1362.964, 181.2207
1364.022, 175.4487
1365.081, 122.4316
1366.139, 105.4221
1367.197, 150.2695
1368.255, 108.9216
1369.313, 103.7969
1370.371, 142.6077
1371.428, 173.5630
1372.486, 81.28638
1373.543, 73.09326
1374.600, 87.88110
1375.657, 56.63135
1376.713, 114.4272
1377.770, 69.33765
1378.826, 94.12573
1379.882, 119.0042
1380.938, 60.82495
1381.994, 69.61206
1383.050, 95.41235
1384.106, 66.22778
1385.161, 94.64111
1386.216, 57.39624
1387.271, 86.11914
1388.326, 142.5044
1389.381, 67.24365
1390.435, 112.8052
1391.490, 109.5168
1392.544, 81.20703
1393.598, 164.5664
1394.652, 18.75244
1395.705, 86.75049
1396.759, 50.36548
1397.812, 3.681641
1398.866, 88.26416
1399.919, 79.67358
1400.972, 40.26147
1402.024, 43.75635
1403.077, 62.32227
1404.129, 73.87720
1405.181, 71.28638
1406.233, 43.75513
1407.285, 26.66064
1408.337, 35.84888
1409.389, 123.3411
1410.440, 112.8264
1411.491, 25.32031
1412.542, 75.81738
1413.593, 57.22876
1414.644, 51.71753
1415.695, 48.20654
1416.745, 63.75415
1417.795, 92.29736
1418.845, 63.90820
1419.895, 101.4878
1420.945, 25.24292
1421.995, 7.048340
1423.044, 30.70410
1424.093, 73.33081
1425.142, 41.96313
1426.191, 103.6111
1427.240, 52.27783
1428.289, 160.9692
1429.337, 3.695801
1430.385, 97.45166
1431.433, 2.757813
1432.481, 65.06079
1433.529, 59.91187
1434.577, 78.05176
1435.624, 90.93262
1436.672, 25.39307
1437.719, 112.6948
1438.766, 42.65894
1439.812, 77.72729
1440.859, 84.90210
1441.905, 76.11670
1442.952, 13.14062
1443.998, 136.0413
1445.044, 69.85596
1446.090, 2.463135
1447.135, 146.1450
1448.181, 4.394775
1449.226, 50.62622
1450.271, 70.73633
1451.316, 79.88940
1452.361, 121.0774
1453.405, 8.296387
1454.450, 33.54517
1455.494, 13.77930
1456.538, 119.0227
1457.582, 50.27148
1458.626, 101.3789
1459.670, 79.59473
1460.713, 26.15137
1461.757, 65.10303
1462.800, 63.35962
1463.843, 24.55542
1464.886, 47.81592
1465.928, 93.07373
1466.971, 99.16016
1468.013, 88.41602
1469.055, 46.67261
1470.097, 46.91919
1471.139, 50.17480
1472.181, 59.42139
1473.222, 57.30518
1474.263, 32.61084
1475.305, 45.64648
1476.346, 72.74463
1477.386, 42.82861
1478.427, 120.9690
1479.468, 74.10669
1480.508, 100.1948
1481.548, 47.38184
1482.588, 44.69189
1483.628, 13.99121
1484.668, 14.16064
1485.707, 2.526123
1486.747, 77.85571
1487.786, 32.78711
1488.825, 62.06958
1489.864, 108.2676
1490.902, 80.50977
1491.941, 91.89062
1492.979, 21.97314
1494.017, 56.33032
1495.055, 59.67725
1496.093, 36.13159
1497.131, 82.38647
1498.168, 36.11377
1499.206, 17.52612
1500.243, 60.03784
1501.280, 17.22827
1502.317, 49.33569
1503.354, 91.88818
1504.390, 91.45166
1505.426, 104.8323
1506.463, 83.35815
1507.499, 69.92114
1508.535, 91.28906
1509.570, 61.39160
1510.606, 88.50171
1511.641, 63.11719
1512.676, 76.50537
1513.711, 43.02710
1514.746, 79.42261
1515.781, 120.0552
1516.816, 82.70801
1517.850, 20.68311
1518.884, 26.81104
1519.918, 17.43042
1520.952, 134.0579
1521.986, 75.69141
1523.019, 61.33350
1524.053, 40.97900
1525.086, 97.65234
1526.119, 98.34131
1527.152, 56.04639
1528.185, 106.5544
1529.217, 25.75586
1530.250, 49.50903
1531.282, 20.28101
1532.314, 38.12573
1533.346, 62.76270
1534.377, 45.27271
1535.409, 50.76416
1536.440, 51.52271
1537.472, 41.82861
1538.503, 44.28247
1539.534, 39.18604
1540.564, 34.58252
1541.595, 40.54077
1542.625, 27.43530
1543.656, 45.51733
1544.686, 5.574463
1545.716, 20.70190
1546.745, 12.40259
1547.775, 111.3828
1548.804, 114.3728
1549.834, 145.3706
1550.863, 165.2109
1551.892, 196.9097
1552.920, 429.0500
1553.949, 459.2681
1554.977, 629.5154
1556.006, 485.7642
1557.034, 229.8074
1558.062, 11.53223
1559.089, 65.31860
1560.117, 12.84277
1561.144, 11.70605
1562.172, 74.07617
1563.199, 49.46509
1564.226, 36.82764
1565.252, 36.18994
1566.279, 23.45142
1567.305, 33.01880
1568.332, 40.46533
1569.358, 29.25220
1570.384, 2.656006
1571.409, 0.0000000E+00
##END=



