##NAMES=Elbaite
##RRUFFID=R060631
##IDEAL CHEMISTRY=Na(Al_1.5_Li_1.5_)Al_6_(Si_6_O_18_)(BO_3_)_3_(OH)_3_OH
##LOCALITY=unknown
##OWNER=RRUFF
##SOURCE=Gemological Institute of America
##DESCRIPTION=Pink polished fragment
##STATUS=The identification of this mineral is confirmed by single-crystal X-ray diffraction and chemical analysis.
##URL=rruff.info/R060631
##MEASURED CHEMISTRY=(Na_0.55_Ca_0.34_[box]_0.11_)(Li_1.53_Al_1.30_Mn_0.14_Fe^2+^_0.03_)Al_6.00_(BO_3_)_3_[Si_6.00_O_18_]((OH)_0.82_F_0.18_)_4_
##PIN_ID=L01625
##ORIENTATION=Laser parallel to a* (1 0 0). Fiducial mark perpendicular to laser is parallel to c [0 0 1]
113.2080, 0.0000000E+00
114.4400, 156.4043
115.6710, 207.5625
116.9030, 261.8726
118.1340, 223.0146
119.3650, 299.0479
120.5960, 436.7856
121.8270, 313.3347
123.0580, 338.6189
124.2880, 184.7075
125.5190, 131.7507
126.7490, 109.0698
127.9790, 41.44482
129.2090, 114.1006
130.4390, 47.60205
131.6680, 50.03906
132.8980, 61.92383
134.1270, 51.15820
135.3560, 10.85303
136.5850, 110.8867
137.8140, 173.9683
139.0430, 262.3145
140.2710, 333.8662
141.5000, 439.5747
142.7280, 587.4004
143.9560, 698.3018
145.1840, 876.2397
146.4120, 1065.173
147.6390, 1175.063
148.8670, 1270.872
150.0940, 1470.562
151.3210, 1389.084
152.5490, 1273.373
153.7750, 1088.369
155.0020, 1067.017
156.2290, 862.2666
157.4550, 776.0889
158.6810, 582.4565
159.9080, 533.3477
161.1340, 445.7456
162.3590, 456.6504
163.5850, 384.0776
164.8110, 262.0420
166.0360, 219.5420
167.2610, 183.5747
168.4860, 192.1460
169.7110, 156.2715
170.9360, 188.9375
172.1610, 166.1211
173.3850, 170.8022
174.6100, 295.9609
175.8340, 262.5801
177.0580, 430.6431
178.2820, 473.1348
179.5050, 551.0430
180.7290, 736.3525
181.9520, 998.0518
183.1760, 1244.128
184.3990, 1400.574
185.6220, 1600.376
186.8450, 2157.479
188.0670, 2446.725
189.2900, 2944.090
190.5120, 3396.547
191.7340, 3893.081
192.9560, 4474.660
194.1780, 4997.249
195.4000, 5697.888
196.6220, 6369.551
197.8430, 7170.280
199.0640, 7716.152
200.2860, 8780.177
201.5070, 9487.364
202.7270, 10528.72
203.9480, 11346.24
205.1690, 12769.94
206.3890, 14203.81
207.6090, 16014.89
208.8290, 18129.21
210.0490, 20231.89
211.2690, 22790.10
212.4890, 25293.82
213.7080, 28312.07
214.9280, 30971.74
216.1470, 33474.79
217.3660, 35218.16
218.5850, 36376.82
219.8030, 36607.80
221.0220, 35555.12
222.2400, 34066.92
223.4590, 31903.34
224.6770, 30020.28
225.8950, 27927.49
227.1120, 26345.83
228.3300, 25148.27
229.5480, 24028.83
230.7650, 23445.50
231.9820, 23006.28
233.1990, 23195.17
234.4160, 22887.19
235.6330, 23064.31
236.8490, 23309.55
238.0660, 23562.90
239.2820, 23773.37
240.4980, 23508.96
241.7140, 23412.66
242.9300, 22856.47
244.1460, 22284.41
245.3610, 21442.45
246.5770, 20215.62
247.7920, 19661.88
249.0070, 18299.27
250.2220, 16967.77
251.4370, 16130.38
252.6510, 15181.10
253.8660, 14566.93
255.0800, 13851.87
256.2940, 13322.92
257.5080, 13110.09
258.7220, 12464.36
259.9360, 11959.01
261.1490, 11573.45
262.3630, 11016.63
263.5760, 10819.49
264.7890, 10502.12
266.0020, 10152.41
267.2150, 9689.134
268.4270, 9501.041
269.6400, 8740.610
270.8520, 8470.287
272.0640, 7876.028
273.2760, 7270.356
274.4880, 6692.168
275.7000, 6134.974
276.9120, 5496.864
278.1230, 4900.200
279.3340, 4246.031
280.5450, 3648.732
281.7560, 3223.719
282.9670, 2766.093
284.1780, 2253.685
285.3880, 1931.491
286.5980, 1697.505
287.8090, 1308.722
289.0190, 1079.138
290.2290, 1050.746
291.4380, 897.5430
292.6480, 918.5244
293.8570, 921.6855
295.0670, 914.0225
296.2760, 1076.532
297.4850, 1142.209
298.6930, 1199.052
299.9020, 1439.568
301.1110, 1613.732
302.3190, 1880.441
303.5270, 2163.931
304.7350, 2593.359
305.9430, 2939.643
307.1510, 3386.661
308.3580, 3857.893
309.5660, 4164.363
310.7730, 4352.264
311.9800, 4405.027
313.1870, 4452.307
314.3940, 4295.773
315.6010, 3997.573
316.8070, 3622.299
318.0130, 3433.678
319.2200, 3282.907
320.4260, 3108.316
321.6310, 3051.651
322.8370, 2881.798
324.0430, 2838.094
325.2480, 2992.146
326.4540, 2878.988
327.6590, 2972.982
328.8640, 2951.404
330.0680, 2917.146
331.2730, 3020.805
332.4780, 3063.528
333.6820, 3108.812
334.8860, 3146.515
336.0900, 3410.354
337.2940, 3552.446
338.4980, 3768.354
339.7010, 3993.357
340.9050, 4234.115
342.1080, 4469.649
343.3110, 4776.938
344.5140, 5090.321
345.7170, 5362.801
346.9200, 5924.373
348.1220, 6281.041
349.3240, 7111.800
350.5270, 7508.653
351.7290, 8462.597
352.9310, 9480.633
354.1320, 10477.76
355.3340, 11931.98
356.5350, 13693.28
357.7370, 15628.66
358.9380, 18332.13
360.1390, 21446.68
361.3400, 24718.32
362.5400, 29299.03
363.7410, 34107.80
364.9410, 39225.67
366.1410, 44253.61
367.3410, 49231.61
368.5410, 53542.69
369.7410, 55678.84
370.9400, 56399.05
372.1400, 54768.33
373.3390, 51522.68
374.5380, 46380.09
375.7370, 41725.57
376.9360, 37087.11
378.1350, 32627.71
379.3330, 28472.39
380.5310, 25184.12
381.7300, 22658.93
382.9280, 20383.80
384.1260, 18929.73
385.3230, 17692.72
386.5210, 16817.79
387.7180, 16160.91
388.9160, 15658.10
390.1130, 15651.35
391.3100, 15898.67
392.5060, 16032.05
393.7030, 16708.50
394.9000, 17179.01
396.0960, 17904.58
397.2920, 18633.22
398.4880, 19427.93
399.6840, 19908.69
400.8800, 20312.53
402.0750, 20605.43
403.2710, 20770.38
404.4660, 20444.38
405.6610, 20059.58
406.8560, 19183.81
408.0510, 18059.14
409.2450, 16768.56
410.4400, 15148.07
411.6340, 13543.69
412.8280, 11839.41
414.0220, 10543.22
415.2160, 9124.146
416.4100, 7638.172
417.6030, 6654.302
418.7970, 5724.560
419.9900, 4959.915
421.1830, 4283.366
422.3760, 3662.931
423.5690, 3155.969
424.7610, 2561.389
425.9540, 2341.264
427.1460, 1993.230
428.3380, 1713.251
429.5300, 1400.436
430.7220, 1218.673
431.9140, 1074.000
433.1050, 884.4146
434.2970, 825.9165
435.4880, 610.5059
436.6790, 539.1812
437.8700, 307.9429
439.0610, 202.7896
440.2510, 263.7197
441.4420, 227.7344
442.6320, 5.832031
443.8220, 60.95312
445.0120, 38.05957
446.2020, 28.44336
447.3910, 110.0835
448.5810, 202.7012
449.7700, 213.3369
450.9600, 328.9956
452.1490, 214.7295
453.3370, 259.4888
454.5260, 233.2939
455.7150, 240.1338
456.9030, 141.0117
458.0910, 263.8872
459.2800, 139.8140
460.4670, 46.73877
461.6550, 203.6245
462.8430, 3.463867
464.0300, 120.3896
465.2180, 73.23584
466.4050, 154.0557
467.5920, 86.88232
468.7790, 159.8198
469.9650, 140.5068
471.1520, 283.3276
472.3380, 342.2158
473.5250, 412.1963
474.7110, 356.3022
475.8970, 328.0605
477.0820, 221.8042
478.2680, 143.1382
479.4540, 24.52148
480.6390, 162.2412
481.8240, 258.0952
483.0090, 321.8931
484.1940, 506.8242
485.3780, 569.8252
486.5630, 771.8955
487.7470, 993.0352
488.9320, 1134.243
490.1160, 1383.521
491.3000, 1623.866
492.4830, 1818.280
493.6670, 2082.763
494.8500, 2385.312
496.0340, 2739.931
497.2170, 2930.615
498.4000, 3383.367
499.5820, 3611.186
500.7650, 4012.071
501.9480, 4232.023
503.1300, 4361.042
504.3120, 4871.125
505.4940, 4782.274
506.6760, 5305.488
507.8580, 5360.771
509.0390, 5407.115
510.2210, 5461.526
511.4020, 5517.002
512.5830, 5314.542
513.7640, 5165.147
514.9450, 5079.817
516.1250, 4782.549
517.3060, 4253.347
518.4860, 4039.209
519.6660, 3614.136
520.8460, 3369.131
522.0260, 3200.194
523.2060, 2841.341
524.3850, 2697.571
525.5650, 2467.904
526.7440, 2362.358
527.9230, 2239.917
529.1020, 2195.579
530.2810, 1994.364
531.4590, 1911.252
532.6380, 1869.262
533.8160, 1844.410
534.9940, 1694.683
536.1720, 1594.103
537.3500, 1487.636
538.5270, 1220.295
539.7050, 1073.072
540.8820, 1112.981
542.0590, 833.0215
543.2360, 814.1636
544.4130, 738.4424
545.5900, 756.8325
546.7660, 691.3491
547.9430, 638.1553
549.1190, 530.7539
550.2950, 507.6289
551.4710, 441.6016
552.6470, 361.6548
553.8220, 377.8296
554.9980, 424.0986
556.1730, 382.4761
557.3480, 390.9307
558.5230, 384.4814
559.6980, 357.0996
560.8730, 435.7910
562.0470, 477.5605
563.2220, 337.4131
564.3960, 345.3506
565.5700, 425.3755
566.7440, 409.8848
567.9170, 466.2876
569.0910, 544.8950
570.2640, 548.2153
571.4380, 653.5947
572.6110, 695.0361
573.7840, 649.5352
574.9570, 759.0889
576.1290, 702.6973
577.3020, 839.3618
578.4740, 939.0752
579.6460, 1018.838
580.8180, 908.6519
581.9900, 897.5122
583.1620, 1040.420
584.3330, 1033.862
585.5040, 1123.857
586.6760, 1201.511
587.8470, 1237.579
589.0180, 1213.903
590.1880, 1116.563
591.3590, 1175.678
592.5290, 1127.764
593.7000, 1238.794
594.8700, 1202.577
596.0400, 1117.675
597.2090, 1040.434
598.3790, 1072.177
599.5490, 1137.761
600.7180, 1058.585
601.8870, 1122.925
603.0560, 1074.576
604.2250, 1142.209
605.3940, 1168.352
606.5620, 1146.288
607.7300, 1249.506
608.8990, 1332.121
610.0670, 1378.097
611.2350, 1465.070
612.4020, 1517.763
613.5700, 1539.281
614.7370, 1804.027
615.9050, 1841.854
617.0720, 2229.262
618.2390, 2485.394
619.4060, 2761.531
620.5720, 3245.559
621.7390, 3713.912
622.9050, 4281.311
624.0710, 5141.753
625.2370, 6023.243
626.4030, 6771.778
627.5690, 7875.356
628.7340, 8905.978
629.9000, 9895.646
631.0650, 10820.35
632.2300, 11582.10
633.3950, 12001.89
634.5600, 12132.72
635.7240, 12117.60
636.8890, 11614.51
638.0530, 11276.46
639.2170, 10715.45
640.3810, 9992.481
641.5450, 9594.548
642.7080, 9020.652
643.8720, 8444.794
645.0350, 7953.973
646.1980, 7711.183
647.3610, 7641.434
648.5240, 7360.715
649.6870, 7008.036
650.8490, 6616.386
652.0120, 6352.770
653.1740, 5940.188
654.3360, 5716.638
655.4980, 5425.119
656.6600, 5167.633
657.8210, 4698.222
658.9830, 4369.796
660.1440, 4066.578
661.3050, 3691.127
662.4660, 3428.688
663.6270, 3254.228
664.7870, 2899.518
665.9480, 2606.625
667.1080, 2524.266
668.2680, 2215.156
669.4280, 2132.567
670.5880, 2110.215
671.7480, 1976.648
672.9070, 2028.866
674.0670, 2065.098
675.2260, 2035.636
676.3850, 2184.432
677.5440, 2164.037
678.7030, 2253.814
679.8610, 2430.977
681.0200, 2611.333
682.1780, 2931.484
683.3360, 3176.062
684.4940, 3477.701
685.6520, 3948.950
686.8090, 4467.428
687.9670, 5133.308
689.1240, 5791.619
690.2810, 6798.533
691.4380, 7697.492
692.5950, 8746.248
693.7520, 10090.74
694.9080, 11448.82
696.0650, 12941.22
697.2210, 14568.34
698.3770, 16574.41
699.5330, 18331.34
700.6880, 20225.69
701.8440, 21943.22
702.9990, 23004.49
704.1550, 24076.18
705.3100, 24350.48
706.4650, 24035.82
707.6190, 23484.53
708.7740, 22195.19
709.9290, 20372.49
711.0830, 18657.19
712.2370, 16757.43
713.3910, 14745.88
714.5450, 12724.70
715.6980, 11344.60
716.8520, 9757.195
718.0050, 8639.946
719.1580, 7683.759
720.3110, 6860.927
721.4640, 6237.931
722.6170, 5822.714
723.7700, 5337.658
724.9220, 5041.929
726.0740, 5014.409
727.2260, 4802.279
728.3780, 4702.874
729.5300, 4732.363
730.6810, 4734.906
731.8330, 4733.466
732.9840, 5010.209
734.1350, 5026.825
735.2860, 5250.467
736.4370, 5593.138
737.5880, 5635.815
738.7380, 5847.525
739.8880, 6066.238
741.0390, 6237.992
742.1890, 6204.709
743.3380, 6267.404
744.4880, 6241.100
745.6380, 5924.782
746.7870, 5874.473
747.9360, 5452.156
749.0850, 5112.844
750.2340, 4713.537
751.3830, 4356.261
752.5310, 3845.270
753.6800, 3648.103
754.8280, 3108.983
755.9760, 2815.083
757.1240, 2387.032
758.2720, 2108.973
759.4190, 1843.877
760.5670, 1651.741
761.7140, 1418.566
762.8610, 1251.511
764.0080, 1186.289
765.1550, 859.9897
766.3020, 718.6479
767.4480, 763.3540
768.5950, 638.9272
769.7410, 515.4707
770.8870, 410.9561
772.0330, 454.3970
773.1780, 338.7935
774.3240, 469.1445
775.4690, 283.4497
776.6140, 381.7559
777.7590, 318.9692
778.9040, 336.1357
780.0490, 354.2549
781.1940, 345.3262
782.3380, 376.3496
783.4820, 314.3247
784.6260, 275.2510
785.7700, 381.1279
786.9140, 349.9565
788.0580, 264.7344
789.2010, 360.4619
790.3450, 281.1396
791.4880, 222.7666
792.6310, 182.3418
793.7730, 314.8657
794.9160, 181.3374
796.0590, 256.7554
797.2010, 78.12109
798.3430, 102.4224
799.4850, 6.338867
800.6270, 4.194824
801.7690, 78.14355
802.9100, 153.2266
804.0520, 80.48242
805.1930, 82.87549
806.3340, 153.4072
807.4750, 76.11523
808.6160, 150.9595
809.7560, 209.9814
810.8970, 161.2114
812.0370, 244.6250
813.1770, 120.2666
814.3170, 164.0713
815.4570, 134.0630
816.5960, 187.2266
817.7360, 189.5889
818.8750, 74.15381
820.0140, 207.8594
821.1530, 112.7769
822.2920, 169.8569
823.4310, 189.1289
824.5690, 115.6045
825.7070, 138.2441
826.8460, 68.06055
827.9840, 5.016602
829.1220, 161.0796
830.2590, 61.33105
831.3970, 118.7192
832.5340, 3.725586
833.6710, 71.93213
834.8080, 34.26904
835.9450, 10.38184
837.0820, 12.60400
838.2190, 31.70068
839.3550, 43.91846
840.4910, 51.04883
841.6270, 22.26221
842.7630, 62.30469
843.8990, 10.99170
845.0350, 4.809082
846.1700, 64.28516
847.3060, 42.29785
848.4410, 65.22607
849.5760, 118.0732
850.7100, 87.84717
851.8450, 81.54395
852.9800, 193.1626
854.1140, 171.7148
855.2480, 147.2002
856.3820, 205.6152
857.5160, 183.9653
858.6500, 306.2490
859.7830, 263.4731
860.9170, 213.6357
862.0500, 371.7349
863.1830, 270.7769
864.3160, 337.7583
865.4480, 368.6816
866.5810, 361.5474
867.7130, 377.3555
868.8460, 332.1060
869.9780, 431.7969
871.1100, 535.4307
872.2410, 385.0063
873.3730, 455.5239
874.5050, 447.9844
875.6360, 396.3857
876.7670, 359.7300
877.8980, 415.0142
879.0290, 410.2402
880.1590, 412.4087
881.2900, 427.1440
882.4200, 428.5708
883.5500, 438.5645
884.6800, 422.4995
885.8100, 452.3765
886.9400, 435.5596
888.0690, 314.9561
889.1990, 396.6562
890.3280, 394.2969
891.4570, 328.8789
892.5860, 368.3989
893.7140, 492.8599
894.8430, 384.2607
895.9710, 398.6035
897.1000, 392.8862
898.2280, 330.1123
899.3560, 359.2783
900.4830, 386.3882
901.6110, 402.4404
902.7380, 344.4341
903.8660, 439.3696
904.9930, 361.2573
906.1200, 411.0889
907.2460, 418.8745
908.3730, 388.6064
909.5000, 481.2812
910.6260, 402.9004
911.7520, 348.4653
912.8780, 512.9800
914.0040, 433.4395
915.1290, 593.8438
916.2550, 593.1929
917.3800, 596.5054
918.5050, 593.7632
919.6300, 544.9736
920.7550, 546.1611
921.8800, 575.0342
923.0040, 605.6621
924.1290, 640.4160
925.2530, 758.4077
926.3770, 758.3774
927.5010, 894.2944
928.6250, 874.1802
929.7480, 920.0142
930.8720, 1031.757
931.9950, 1023.497
933.1180, 1003.003
934.2410, 1100.749
935.3640, 1201.468
936.4860, 1319.187
937.6090, 1148.166
938.7310, 1343.304
939.8530, 1343.889
940.9750, 1534.207
942.0970, 1553.979
943.2180, 1548.502
944.3400, 1646.225
945.4610, 1802.144
946.5820, 2028.040
947.7030, 2172.622
948.8240, 2328.934
949.9450, 2313.430
951.0650, 2518.745
952.1860, 2700.648
953.3060, 2729.336
954.4260, 2960.221
955.5460, 3119.653
956.6650, 3393.994
957.7850, 3699.712
958.9040, 3754.171
960.0230, 3943.203
961.1420, 4000.777
962.2610, 4145.728
963.3800, 4355.618
964.4990, 4393.689
965.6170, 4469.998
966.7350, 4611.681
967.8530, 4619.030
968.9710, 4637.003
970.0890, 4759.232
971.2070, 4582.959
972.3240, 4614.235
973.4410, 4567.305
974.5580, 4525.604
975.6750, 4388.452
976.7920, 4354.656
977.9090, 4261.820
979.0250, 4234.590
980.1410, 4086.385
981.2580, 4218.505
982.3740, 4112.200
983.4890, 4216.320
984.6050, 4117.218
985.7200, 4215.719
986.8360, 4122.111
987.9510, 4169.775
989.0660, 4239.249
990.1810, 4031.487
991.2950, 4139.238
992.4100, 4082.798
993.5240, 4125.127
994.6390, 4149.273
995.7530, 4202.062
996.8660, 4094.635
997.9800, 4103.795
999.0940, 4021.228
1000.207, 3942.779
1001.320, 4054.293
1002.433, 3975.832
1003.546, 3862.206
1004.659, 3719.733
1005.772, 3696.255
1006.884, 3616.561
1007.996, 3614.952
1009.108, 3596.789
1010.220, 3602.291
1011.332, 3598.118
1012.444, 3602.232
1013.555, 3597.723
1014.666, 3508.210
1015.777, 3495.694
1016.888, 3483.466
1017.999, 3461.045
1019.110, 3453.133
1020.220, 3484.607
1021.331, 3417.151
1022.441, 3464.314
1023.551, 3320.786
1024.661, 3277.256
1025.770, 3197.549
1026.880, 3250.009
1027.989, 3062.478
1029.098, 3025.948
1030.207, 2812.418
1031.316, 2949.128
1032.425, 2800.439
1033.533, 2747.400
1034.642, 2899.904
1035.750, 2723.382
1036.858, 2711.771
1037.966, 2809.442
1039.073, 2792.114
1040.181, 2748.873
1041.288, 2813.929
1042.396, 2734.421
1043.503, 2788.971
1044.610, 2762.858
1045.716, 2880.664
1046.823, 2895.171
1047.929, 3056.683
1049.036, 3068.300
1050.142, 3197.804
1051.248, 3256.329
1052.353, 3527.377
1053.459, 3514.910
1054.564, 3775.450
1055.670, 3896.995
1056.775, 3967.349
1057.880, 4158.356
1058.985, 4323.740
1060.089, 4501.438
1061.194, 4773.712
1062.298, 4856.289
1063.402, 5095.661
1064.506, 5485.250
1065.610, 5747.885
1066.713, 5932.234
1067.817, 6324.900
1068.920, 6463.546
1070.023, 6703.619
1071.126, 7074.345
1072.229, 7386.338
1073.332, 7730.832
1074.435, 7949.712
1075.537, 8286.476
1076.639, 8460.922
1077.741, 9165.003
1078.843, 9325.009
1079.945, 9828.721
1081.046, 10167.17
1082.148, 10362.69
1083.249, 10604.68
1084.350, 10721.31
1085.451, 10811.90
1086.551, 10826.35
1087.652, 10758.06
1088.752, 10683.87
1089.853, 10344.02
1090.953, 10101.05
1092.053, 9808.081
1093.152, 9198.568
1094.252, 9147.898
1095.351, 8512.309
1096.451, 8192.768
1097.550, 7783.066
1098.649, 7393.408
1099.748, 6918.814
1100.846, 6596.343
1101.945, 6164.307
1103.043, 5789.859
1104.141, 5410.390
1105.239, 5016.690
1106.337, 4685.293
1107.434, 4358.488
1108.532, 4065.280
1109.629, 3754.082
1110.726, 3564.636
1111.823, 3358.104
1112.920, 3202.960
1114.017, 3104.625
1115.113, 2895.477
1116.210, 2774.945
1117.306, 2686.027
1118.402, 2539.001
1119.498, 2497.184
1120.593, 2359.244
1121.689, 2180.415
1122.784, 2229.794
1123.879, 2094.823
1124.974, 2055.795
1126.069, 1781.421
1127.164, 1655.781
1128.259, 1571.639
1129.353, 1478.645
1130.447, 1409.646
1131.541, 1302.652
1132.635, 1176.745
1133.729, 1044.761
1134.822, 1030.783
1135.916, 974.8096
1137.009, 948.8413
1138.102, 873.5967
1139.195, 770.9175
1140.288, 743.9629
1141.380, 656.0122
1142.473, 658.0664
1143.565, 560.1255
1144.657, 545.1885
1145.749, 416.2554
1146.841, 421.3267
1147.932, 307.4023
1149.024, 338.4814
1150.115, 323.5649
1151.206, 218.6519
1152.297, 204.7427
1153.388, 150.8379
1154.479, 165.9370
1155.569, 187.0405
1156.659, 122.1470
1157.750, 70.25830
1158.839, 48.20264
1159.929, 151.4912
1161.019, 8.612793
1162.108, 16.26318
1163.198, 53.86133
1164.287, 28.01123
1165.376, 0.1137700
1166.465, 10.24121
1167.553, 104.3711
1168.642, 65.49658
1169.730, 12.38232
1170.818, 65.26855
1171.906, 25.17383
1172.994, 44.91650
1174.082, 1.990723
1175.170, 17.89746
1176.257, 41.80664
1177.344, 62.27295
1178.431, 32.38135
1179.518, 4.535645
1180.605, 84.45312
1181.691, 61.59473
1182.778, 40.35547
1183.864, 129.3203
1184.950, 28.65479
1186.036, 65.66016
1187.122, 75.36230
1188.207, 12.41846
1189.292, 121.4795
1190.378, 1.599121
1191.463, 85.72119
1192.548, 43.11572
1193.632, 37.04639
1194.717, 20.77393
1195.801, 5.595215
1196.886, 97.58447
1197.970, 37.81494
1199.054, 41.93457
1200.137, 121.3154
1201.221, 19.36914
1202.305, 19.94678
1203.388, 8.275879
1204.471, 77.38574
1205.554, 43.95410
1206.637, 21.32227
1207.719, 12.70654
1208.802, 58.10449
1209.884, 51.54541
1210.966, 45.01123
1212.048, 60.48096
1213.130, 50.02637
1214.212, 7.391602
1215.293, 1.801270
1216.374, 57.75586
1217.456, 93.59863
1218.536, 41.05518
1219.617, 24.60205
1220.698, 23.71191
1221.778, 42.01855
1222.859, 9.317383
1223.939, 4.396973
1225.019, 36.13135
1226.099, 3.903320
1227.178, 54.30762
1228.258, 124.5098
1229.337, 104.7026
1230.417, 29.88623
1231.496, 13.05957
1232.574, 43.21680
1233.653, 128.3633
1234.732, 9.500488
1235.810, 79.61865
1236.888, 14.72607
1237.966, 33.81641
1239.044, 58.10547
1240.122, 10.91650
1241.199, 18.08203
1242.277, 51.88428
1243.354, 12.83740
1244.431, 70.77051
1245.508, 15.30908
1246.585, 8.423828
1247.661, 47.42822
1248.738, 30.26758
1249.814, 37.33398
1250.890, 23.09961
1251.966, 26.66846
1253.042, 51.41846
1254.117, 68.15576
1255.193, 3.879395
1256.268, 30.57520
1257.343, 14.74658
1258.418, 68.89307
1259.493, 106.5190
1260.567, 130.1323
1261.642, 53.73291
1262.716, 122.3193
1263.790, 95.89209
1264.864, 152.4521
1265.938, 158.7427
1267.011, 128.5322
1268.085, 168.0527
1269.158, 147.5601
1270.231, 129.0532
1271.304, 173.5342
1272.377, 168.0015
1273.450, 139.4556
1274.522, 126.8960
1275.594, 233.3232
1276.666, 177.7363
1277.738, 207.1362
1278.810, 140.5234
1279.882, 189.8965
1280.953, 209.2559
1282.025, 295.6021
1283.096, 158.9346
1284.167, 149.2534
1285.238, 137.5596
1286.308, 179.8516
1287.379, 144.0259
1288.449, 149.2720
1289.519, 112.6465
1290.589, 155.8843
1291.659, 161.8701
1292.729, 225.0815
1293.798, 137.7559
1294.868, 150.9111
1295.937, 104.0820
1297.006, 103.5771
1298.075, 133.2920
1299.143, 109.1270
1300.212, 200.9761
1301.280, 190.5181
1302.348, 204.6143
1303.416, 166.6436
1304.484, 137.3271
1305.552, 116.0361
1306.620, 71.08154
1307.687, 103.1147
1308.754, 187.0352
1309.821, 115.0610
1310.888, 249.0586
1311.955, 213.5264
1313.021, 121.5024
1314.088, 59.46582
1315.154, 147.4238
1316.220, 174.5679
1317.286, 186.0542
1318.352, 109.1577
1319.417, 260.9443
1320.483, 85.14893
1321.548, 120.0435
1322.613, 160.1382
1323.678, 117.0063
1324.743, 210.8232
1325.807, 149.9253
1326.872, 48.70898
1327.936, 147.5273
1329.000, 106.9326
1330.064, 121.7188
1331.128, 136.2925
1332.191, 147.4028
1333.255, 144.1631
1334.318, 70.08740
1335.381, 65.36475
1336.444, 70.06250
1337.507, 72.91113
1338.569, 74.11133
1339.632, 10.66260
1340.694, 127.1855
1341.756, 119.3071
1342.818, 67.73047
1343.880, 3.868652
1344.941, 13.07617
1346.003, 35.02930
1347.064, 40.57910
1348.125, 100.9009
1349.186, 172.4116
1350.247, 89.98730
1351.308, 106.1606
1352.368, 110.5503
1353.428, 121.9004
1354.489, 81.19873
1355.549, 48.75146
1356.608, 37.29785
1357.668, 127.8374
1358.727, 102.2744
1359.787, 120.3218
1360.846, 218.7949
1361.905, 196.3096
1362.964, 93.08350
1364.022, 134.5864
1365.081, 32.53467
1366.139, 127.9209
1367.197, 123.3174
1368.255, 145.9609
1369.313, 219.7915
1370.371, 149.2197
1371.428, 156.8525
1372.486, 119.3159
1373.543, 125.1748
1374.600, 135.8618
1375.657, 155.8057
1376.713, 153.9844
1377.770, 215.2925
1378.826, 174.4966
1379.882, 220.5024
1380.938, 270.8643
1381.994, 324.2910
1383.050, 333.0674
1384.106, 285.1133
1385.161, 357.6685
1386.216, 503.0791
1387.271, 386.4995
1388.326, 448.9185
1389.381, 600.2539
1390.435, 613.6699
1391.490, 694.0850
1392.544, 595.5000
1393.598, 634.9141
1394.652, 576.3281
1395.705, 711.7427
1396.759, 689.1582
1397.812, 690.5737
1398.866, 573.9902
1399.919, 631.4087
1400.972, 657.8281
1402.024, 554.2378
1403.077, 585.6489
1404.129, 619.0620
1405.181, 561.4775
1406.233, 549.8950
1407.285, 514.3159
1408.337, 469.7393
1409.389, 561.1665
1410.440, 445.5977
1411.491, 419.0322
1412.542, 503.4722
1413.593, 443.9165
1414.644, 337.3657
1415.695, 428.8203
1416.745, 391.2812
1417.795, 366.7485
1418.845, 384.2241
1419.895, 301.7070
1420.945, 330.2002
1421.995, 299.7026
1423.044, 288.2139
1424.093, 346.7349
1425.142, 256.7847
1426.191, 367.3394
1427.240, 306.9165
1428.289, 323.5098
1429.337, 337.1177
1430.385, 223.7397
1431.433, 252.3794
1432.481, 258.8013
1433.529, 206.6982
1434.577, 283.3994
1435.624, 264.1221
1436.672, 188.6001
1437.719, 389.6172
1438.766, 181.4067
1439.812, 256.2520
1440.859, 336.5146
1441.905, 322.4126
1442.952, 347.2466
1443.998, 210.3569
1445.044, 275.2144
1446.090, 276.8564
1447.135, 152.3257
1448.181, 243.5444
1449.226, 326.7578
1450.271, 228.0195
1451.316, 148.3125
1452.361, 261.6333
1453.405, 194.9580
1454.450, 244.3071
1455.494, 269.6841
1456.538, 400.0845
1457.582, 235.5884
1458.626, 310.0625
1459.670, 150.2827
1460.713, 207.8315
1461.757, 256.3892
1462.800, 251.9570
1463.843, 208.5645
1464.886, 195.1729
1465.928, 176.7803
1466.971, 146.3936
1468.013, 201.0122
1469.055, 90.63818
1470.097, 215.2974
1471.139, 138.0117
1472.181, 126.7500
1473.222, 150.5117
1474.263, 208.3188
1475.305, 95.13672
1476.346, 214.0034
1477.386, 126.8804
1478.427, 9.789551
1479.468, 43.25439
1480.508, 21.71143
1481.548, 1.688965
1482.588, 106.6772
1483.628, 10.67676
1484.668, 62.68799
1485.707, 74.71240
1486.747, 97.74854
1487.786, 11.79736
1488.825, 65.86084
1489.864, 53.30371
1490.902, 55.03174
1491.941, 70.13916
1492.979, 94.26270
1494.017, 87.40234
1495.055, 84.55762
1496.093, 167.7305
1497.131, 63.91895
1498.168, 82.12305
1499.206, 44.33691
1500.243, 212.5664
1501.280, 198.8105
1502.317, 191.0703
1503.354, 228.3457
1504.390, 198.2031
1505.426, 195.9375
1506.463, 198.2393
1507.499, 206.5371
1508.535, 269.8428
1509.570, 276.1650
1510.606, 266.5195
1511.641, 348.9102
1512.676, 312.3379
1513.711, 178.8018
1514.746, 373.3018
1515.781, 288.8613
1516.816, 311.4795
1517.850, 372.1357
1518.884, 273.8291
1519.918, 222.5635
1520.952, 364.3389
1521.986, 384.1562
1523.019, 422.0137
1524.053, 406.1143
1525.086, 415.8301
1526.119, 285.1562
1527.152, 391.1133
1528.185, 325.1113
1529.217, 295.1514
1530.250, 376.2344
1531.282, 227.3633
1532.314, 141.5400
1533.346, 252.7656
1534.377, 256.0430
1535.409, 175.3740
1536.440, 129.7617
1537.472, 230.2109
1538.503, 193.7246
1539.534, 182.3066
1540.564, 246.9658
1541.595, 197.7051
1542.625, 207.5283
1543.656, 201.4385
1544.686, 153.4375
1545.716, 265.5254
1546.745, 99.70801
1547.775, 160.9912
1548.804, 16.55469
1549.834, 184.0947
1550.863, 124.8857
1551.892, 85.83008
1552.920, 236.9414
1553.949, 132.2373
1554.977, 167.7324
1556.006, 57.45117
1557.034, 171.4160
1558.062, 199.6533
1559.089, 52.20117
1560.117, 119.3213
1561.144, 166.9971
1562.172, 77.96484
1563.199, 161.2354
1564.226, 7.201172
1565.252, 134.5977
1566.279, 168.9648
1567.305, 105.2471
1568.332, 29.12012
1569.358, 76.51074
1570.384, 0.0000000E+00
##END=



