##NAMES=Epidote
##RRUFFID=R040089
##IDEAL CHEMISTRY=Ca_2_Fe^3+^Al_2_(Si_2_O_7_)(SiO_4_)O(OH)
##LOCALITY=Grafton County, New Hampshire, USA
##OWNER=RRUFF
##SOURCE=University of Arizona Mineral Museum
##DESCRIPTION=Dark green coarsely crystalline massive
##STATUS=The identification of this mineral has been confirmed by X-ray diffraction and chemical analysis
##URL=rruff.info/R040089
##MEASURED CHEMISTRY=Ca_2.00_(Al_2.36_Fe^3+^_0.64_)[Si_2.00_O_7_][Si_1.00_O_4_]O(OH)
##PIN_ID=M00263
##ORIENTATION=Laser parallel to -b* (0 -1 0). Fiducial mark perpendicular to laser is parallel to c [0 0 1]
125.905, 0.000
127.288, 59.864
128.671, 18.216
130.053, 317.329
131.436, 1340.206
132.818, 2267.400
134.200, 4164.264
135.582, 5954.685
136.963, 8173.606
138.345, 9577.723
139.726, 9899.926
141.107, 9620.148
142.488, 8314.312
143.868, 6912.703
145.248, 5163.496
146.629, 4103.852
148.008, 3354.037
149.388, 2786.668
150.768, 2543.605
152.147, 2337.237
153.526, 2209.600
154.905, 1762.689
156.284, 1517.304
157.662, 1528.188
159.040, 1522.001
160.418, 2063.252
161.796, 2484.063
163.174, 3443.686
164.551, 4188.195
165.929, 5386.683
167.306, 6375.755
168.683, 7197.582
170.059, 8059.410
171.436, 7868.168
172.812, 7684.154
174.188, 6491.306
175.564, 5730.020
176.939, 4759.416
178.315, 3709.203
179.690, 2849.346
181.065, 2129.814
182.440, 1670.582
183.814, 1050.608
185.188, 761.817
186.563, 479.122
187.937, 245.476
189.310, 133.008
190.684, 30.944
192.057, 111.696
193.430, 210.380
194.803, 256.232
196.176, 308.236
197.549, 446.374
198.921, 243.628
200.293, 302.987
201.665, 146.435
203.037, 216.960
204.408, 90.447
205.779, 210.800
207.150, 385.107
208.521, 581.508
209.892, 684.438
211.262, 805.926
212.633, 745.944
214.003, 672.458
215.373, 830.421
216.742, 728.783
218.112, 886.495
219.481, 816.498
220.850, 1172.091
222.219, 1478.852
223.588, 1787.518
224.956, 2266.609
226.324, 2677.998
227.692, 3346.083
229.060, 3864.115
230.428, 4532.093
231.795, 5270.021
233.162, 5607.904
234.529, 5833.447
235.896, 5813.555
237.263, 5721.320
238.629, 5258.965
239.995, 4766.348
241.361, 4763.217
242.727, 4449.334
244.093, 5084.553
245.458, 5608.943
246.823, 6702.703
248.188, 7926.180
249.553, 8849.621
250.917, 10124.354
252.282, 10226.378
253.646, 10011.324
255.010, 8991.576
256.374, 7848.192
257.737, 6410.768
259.101, 4993.298
260.464, 4055.383
261.827, 3177.568
263.189, 2639.853
264.552, 2132.236
265.914, 2034.717
267.276, 1920.292
268.638, 1844.967
270.000, 1932.738
271.362, 2185.608
272.723, 2788.573
274.084, 3481.625
275.445, 4464.764
276.806, 5677.993
278.166, 6661.311
279.526, 7524.723
280.887, 7078.227
282.246, 6281.826
283.606, 4835.523
284.966, 3779.318
286.325, 3113.212
287.684, 2467.205
289.043, 2271.298
290.402, 2141.764
291.760, 2153.933
293.118, 2436.844
294.477, 2570.053
295.834, 3213.300
297.192, 3576.415
298.550, 4609.305
299.907, 4421.852
301.264, 4543.972
302.621, 4375.637
303.978, 3906.849
305.334, 3417.614
306.690, 2667.869
308.046, 2127.461
309.402, 1662.293
310.758, 1228.409
312.113, 949.893
313.469, 549.820
314.824, 349.254
316.179, 197.247
317.533, 38.844
318.888, 48.028
320.242, 22.332
321.596, 155.493
322.950, 92.081
324.304, 465.150
325.657, 648.505
327.010, 925.532
328.363, 1345.552
329.716, 1635.282
331.069, 2000.941
332.421, 2034.607
333.774, 1950.279
335.126, 1864.968
336.478, 1724.688
337.829, 1836.475
339.181, 1814.322
340.532, 1954.224
341.883, 2127.180
343.234, 2215.188
344.585, 2690.248
345.935, 3067.358
347.285, 3962.652
348.635, 4896.409
349.985, 6027.577
351.335, 7444.972
352.684, 8269.364
354.034, 9355.582
355.383, 9077.038
356.731, 8432.605
358.080, 7365.596
359.429, 6005.633
360.777, 4857.312
362.125, 3702.031
363.473, 2853.340
364.820, 2109.792
366.168, 1634.139
367.515, 1192.180
368.862, 898.043
370.209, 597.559
371.556, 450.462
372.902, 222.014
374.249, 60.156
375.595, 28.123
376.940, 151.144
378.286, 244.505
379.632, 340.668
380.977, 436.972
382.322, 493.597
383.667, 514.826
385.012, 519.204
386.356, 221.771
387.700, 223.399
389.044, 81.946
390.388, 400.315
391.732, 602.711
393.075, 1131.133
394.419, 1341.583
395.762, 1692.063
397.105, 1568.574
398.447, 1877.116
399.790, 1467.691
401.132, 975.300
402.474, 774.945
403.816, 481.645
405.158, 400.409
406.499, 363.234
407.841, 245.125
409.182, 302.103
410.523, 118.159
411.864, 299.303
413.204, 416.510
414.544, 368.771
415.884, 843.981
417.224, 1044.038
418.564, 1680.915
419.904, 2188.795
421.243, 3138.790
422.582, 4246.892
423.921, 5605.105
425.260, 7883.424
426.598, 9771.851
427.937, 11930.380
429.275, 13459.025
430.613, 13917.763
431.951, 13986.607
433.288, 12795.565
434.625, 12144.608
435.963, 11153.752
437.300, 10362.985
438.636, 10142.316
439.973, 9421.731
441.309, 9531.232
442.646, 9410.834
443.981, 9760.508
445.317, 10450.272
446.653, 11120.112
447.988, 13090.035
449.323, 14520.046
450.658, 17490.146
451.993, 20080.266
453.328, 21540.383
454.662, 22810.482
455.996, 21940.580
457.331, 21650.664
458.664, 20870.742
459.998, 19260.807
461.331, 19040.850
462.665, 17680.898
463.998, 17200.928
465.330, 16100.945
466.663, 15130.938
467.996, 14150.931
469.328, 12970.926
470.660, 11800.903
471.992, 10570.870
473.323, 9330.827
474.655, 8389.643
475.986, 7197.629
477.317, 6144.791
478.648, 5290.219
479.979, 4885.996
481.309, 4287.967
482.640, 3874.864
483.970, 3671.271
485.300, 3379.839
486.629, 3519.220
487.959, 3329.554
489.288, 3400.000
490.617, 3600.478
491.946, 3481.024
493.275, 3601.514
494.603, 3542.033
495.932, 3662.585
497.260, 3582.987
498.588, 3673.406
499.916, 3853.654
501.243, 4043.928
502.571, 4264.224
503.898, 4684.543
505.225, 4954.886
506.552, 5705.251
507.878, 5975.645
509.205, 6616.075
510.531, 7186.553
511.857, 7677.094
513.183, 8257.710
514.508, 8238.442
515.834, 8439.308
517.159, 7750.326
518.484, 7171.515
519.809, 6722.880
521.133, 5984.461
522.458, 5936.201
523.782, 6108.115
525.106, 6810.159
526.430, 7722.350
527.754, 8184.608
529.077, 8546.917
530.400, 7709.264
531.723, 6591.638
533.046, 5183.878
534.369, 3885.490
535.692, 3156.014
537.014, 2151.799
538.336, 1840.577
539.658, 1398.148
540.980, 1199.818
542.301, 958.080
543.623, 954.152
544.944, 792.095
546.265, 805.412
547.585, 842.739
548.906, 902.911
550.226, 991.540
551.547, 1076.184
552.867, 1284.880
554.186, 1527.206
555.506, 1808.594
556.825, 1991.119
558.145, 2483.938
559.464, 2945.132
560.783, 3445.259
562.101, 4246.496
563.420, 5445.443
564.738, 7142.530
566.056, 9300.084
567.374, 12811.686
568.692, 16591.318
570.009, 19892.916
571.326, 22220.629
572.643, 20543.857
573.960, 17077.514
575.277, 12902.562
576.594, 9216.926
577.910, 6980.494
579.226, 5057.662
580.542, 4172.666
581.858, 3501.335
583.173, 3100.860
584.489, 3006.434
585.804, 2991.441
587.119, 3113.646
588.434, 3262.090
589.748, 3614.062
591.063, 4087.057
592.377, 4347.125
593.691, 4941.046
595.005, 5443.375
596.318, 6026.754
597.632, 7028.368
598.945, 8159.470
600.258, 10723.966
601.571, 10693.444
602.884, 11955.952
604.196, 13144.585
605.508, 13415.877
606.821, 13549.646
608.132, 12651.506
609.444, 11383.659
610.756, 10482.659
612.067, 8898.698
613.378, 7989.253
614.689, 6776.420
616.000, 5975.916
617.311, 5253.603
618.621, 4581.738
619.931, 4145.104
621.241, 3443.364
622.551, 3177.273
623.861, 2753.854
625.170, 2236.282
626.479, 2052.949
627.788, 1787.370
629.097, 1539.522
630.406, 1353.942
631.714, 1233.190
633.023, 1090.649
634.331, 981.892
635.639, 869.990
636.946, 746.160
638.254, 570.956
639.561, 548.040
640.868, 400.872
642.175, 455.349
643.482, 342.080
644.789, 186.297
646.095, 168.573
647.401, 170.806
648.707, 164.045
650.013, 186.865
651.319, 188.462
652.624, 190.096
653.929, 234.536
655.234, 238.932
656.539, 323.283
657.844, 322.592
659.148, 413.656
660.453, 501.079
661.757, 615.256
663.061, 626.389
664.364, 779.477
665.668, 806.520
666.971, 829.517
668.274, 896.468
669.577, 943.372
670.880, 797.228
672.183, 851.037
673.485, 820.796
674.787, 767.506
676.089, 755.165
677.391, 812.771
678.693, 952.325
679.994, 934.824
681.296, 1043.269
682.597, 1185.657
683.898, 1280.988
685.198, 1327.263
686.499, 1430.479
687.799, 1628.637
689.099, 1597.736
690.399, 1683.777
691.699, 1625.763
692.998, 1551.693
694.298, 1547.591
695.597, 1372.475
696.896, 1340.366
698.195, 1173.290
699.493, 913.261
700.792, 872.283
702.090, 843.357
703.388, 674.408
704.686, 669.436
705.984, 523.403
707.281, 450.307
708.578, 378.147
709.876, 233.923
711.172, 224.630
712.469, 197.266
713.766, 132.830
715.062, 48.320
716.358, 69.732
717.654, 27.933
718.950, 53.708
720.246, 22.608
721.541, 28.618
722.836, 91.741
724.131, 59.012
725.426, 89.138
726.721, 25.962
728.015, 112.627
729.310, 118.453
730.604, 139.444
731.898, 127.612
733.191, 113.952
734.485, 170.455
735.778, 135.154
737.071, 145.030
738.364, 142.088
739.657, 126.328
740.950, 132.741
742.242, 167.331
743.535, 91.117
744.827, 147.059
746.118, 147.187
747.410, 84.500
748.702, 113.967
749.993, 88.603
751.284, 105.394
752.575, 77.349
753.866, 69.454
755.156, 123.704
756.447, 44.128
757.737, 92.685
759.027, 31.399
760.316, 74.239
761.606, 114.225
762.896, 84.381
764.185, 89.688
765.474, 40.150
766.763, 6.258
768.051, 66.437
769.340, 13.274
770.628, 51.225
771.916, 23.309
773.204, 0.489
774.492, 83.817
775.780, 36.726
777.067, 14.817
778.354, 75.527
779.641, 25.205
780.928, 46.055
782.215, 83.969
783.501, 28.916
784.787, 63.776
786.073, 22.558
787.359, 0.749
788.645, 77.845
789.930, 104.363
791.216, 81.806
792.501, 165.174
793.786, 94.470
795.071, 146.692
796.355, 223.841
797.640, 152.922
798.924, 264.931
800.208, 238.543
801.492, 236.003
802.775, 221.394
804.059, 308.677
805.342, 348.981
806.625, 327.218
807.908, 443.388
809.191, 437.672
810.474, 459.902
811.756, 585.268
813.038, 531.572
814.320, 610.817
815.602, 664.002
816.884, 672.127
818.165, 812.194
819.446, 864.202
820.727, 965.150
822.008, 1156.041
823.289, 1159.873
824.569, 1348.647
825.850, 1527.364
827.130, 1704.024
828.410, 1937.627
829.690, 2147.174
830.969, 2374.664
832.249, 2630.098
833.528, 2769.476
834.807, 2842.800
836.086, 2833.067
837.364, 2861.282
838.643, 2723.441
839.921, 2628.547
841.199, 2541.600
842.477, 2400.599
843.755, 2322.544
845.033, 2292.832
846.310, 2339.280
847.587, 2309.070
848.864, 2327.810
850.141, 2417.497
851.418, 2474.134
852.694, 2531.719
853.971, 2656.798
855.247, 2692.735
856.523, 2908.165
857.798, 3060.546
859.074, 3199.874
860.349, 3323.152
861.624, 3564.383
862.899, 3748.527
864.174, 3926.011
865.449, 4198.397
866.723, 4470.612
867.998, 4617.499
869.272, 4974.980
870.545, 5325.497
871.819, 5568.874
873.093, 6069.522
874.366, 6403.000
875.639, 6805.986
876.912, 7284.890
878.185, 7615.738
879.458, 7954.582
880.730, 8377.299
882.002, 8284.473
883.274, 8341.198
884.546, 8066.512
885.818, 7572.471
887.090, 7109.202
888.361, 6552.308
889.632, 6277.554
890.903, 5772.118
892.174, 5546.804
893.444, 5467.415
894.715, 5394.563
895.985, 5458.482
897.255, 5452.144
898.525, 5562.253
899.795, 5856.312
901.064, 6144.278
902.334, 6530.354
903.603, 6957.997
904.872, 7674.565
906.140, 8492.877
907.409, 9251.666
908.677, 10167.043
909.946, 11257.400
911.214, 12314.716
912.482, 13615.884
913.749, 14644.363
915.017, 15890.348
916.284, 16618.215
917.551, 17645.768
918.818, 18026.439
920.085, 17870.049
921.352, 17809.111
922.618, 17111.525
923.884, 16051.588
925.150, 14923.438
926.416, 14086.815
927.682, 12334.946
928.947, 11490.153
930.213, 10302.678
931.478, 9428.506
932.743, 8330.451
934.008, 7701.132
935.272, 6927.039
936.537, 6392.180
937.801, 5798.041
939.065, 5383.043
940.329, 4924.807
941.593, 4628.765
942.856, 4384.849
944.119, 4189.853
945.383, 3991.221
946.646, 3693.309
947.908, 3579.636
949.171, 3431.950
950.433, 3264.152
951.696, 3294.583
952.958, 3002.383
954.220, 3024.191
955.481, 2882.961
956.743, 2986.131
958.004, 3026.501
959.265, 3003.804
960.526, 3072.272
961.787, 3171.756
963.048, 3192.256
964.308, 3235.768
965.569, 3167.293
966.829, 3090.832
968.089, 3117.391
969.348, 2886.963
970.608, 2892.551
971.867, 2922.153
973.126, 2841.770
974.385, 2848.406
975.644, 3175.063
976.903, 3301.735
978.161, 3557.423
979.420, 4055.127
980.678, 4571.849
981.936, 5102.586
983.193, 6020.342
984.451, 6398.115
985.708, 6845.907
986.966, 6983.716
988.223, 6321.545
989.479, 5999.392
990.736, 5287.257
991.993, 4501.148
993.249, 3829.061
994.505, 3291.990
995.761, 2696.946
997.017, 2425.921
998.272, 2109.919
999.528, 1895.938
1000.783, 1648.977
1002.038, 1460.039
1003.293, 1215.123
1004.548, 1058.228
1005.802, 950.368
1007.057, 924.530
1008.311, 720.713
1009.565, 689.954
1010.818, 644.212
1012.072, 513.952
1013.326, 517.438
1014.579, 480.239
1015.832, 469.689
1017.085, 575.407
1018.338, 461.804
1019.590, 561.327
1020.842, 612.227
1022.095, 569.928
1023.347, 728.589
1024.599, 767.163
1025.850, 909.212
1027.102, 993.937
1028.353, 1050.835
1029.604, 1241.534
1030.855, 1274.811
1032.106, 1427.716
1033.356, 1629.660
1034.607, 1691.618
1035.857, 2068.814
1037.107, 2203.241
1038.357, 2548.801
1039.607, 2884.781
1040.856, 3262.656
1042.106, 3593.552
1043.355, 4017.801
1044.604, 4255.359
1045.852, 4832.356
1047.101, 4851.579
1048.350, 4844.432
1049.598, 5040.587
1050.846, 4789.661
1052.094, 4834.911
1053.342, 4576.933
1054.589, 4242.248
1055.837, 4142.463
1057.084, 3863.505
1058.331, 3660.198
1059.578, 3621.672
1060.824, 3448.692
1062.071, 3467.275
1063.317, 3306.178
1064.563, 3380.672
1065.809, 3261.679
1067.055, 3069.877
1068.301, 3078.709
1069.546, 2972.117
1070.791, 2839.515
1072.036, 2903.788
1073.281, 2995.346
1074.526, 3144.802
1075.771, 3441.457
1077.015, 3763.735
1078.259, 4152.176
1079.503, 4553.338
1080.747, 5128.930
1081.991, 5860.557
1083.234, 6503.669
1084.478, 7567.248
1085.721, 8638.998
1086.964, 9864.976
1088.206, 11026.912
1089.449, 12268.773
1090.691, 13490.792
1091.934, 14612.690
1093.176, 14784.617
1094.418, 14986.725
1095.659, 13658.696
1096.901, 11521.603
1098.142, 9723.889
1099.384, 7406.012
1100.625, 5991.280
1101.865, 4499.364
1103.106, 3562.691
1104.347, 2807.932
1105.587, 2277.878
1106.827, 1779.296
1108.067, 1535.656
1109.307, 1328.249
1110.546, 1199.235
1111.786, 1016.944
1113.025, 934.687
1114.264, 895.095
1115.503, 777.571
1116.742, 626.528
1117.980, 654.167
1119.219, 554.715
1120.457, 618.562
1121.695, 511.913
1122.933, 515.177
1124.171, 470.104
1125.408, 401.582
1126.645, 335.020
1127.883, 375.924
1129.120, 374.396
1130.356, 359.803
1131.593, 384.623
1132.829, 359.352
1134.066, 344.381
1135.302, 347.925
1136.538, 310.584
1137.773, 212.213
1139.009, 275.809
1140.244, 314.425
1141.480, 232.016
1142.715, 158.607
1143.950, 268.470
1145.184, 135.051
1146.419, 222.282
1147.653, 133.015
1148.887, 103.880
1150.121, 161.849
1151.355, 164.513
1152.589, 60.538
1153.822, 53.001
1155.056, 76.653
1156.289, 34.333
1157.522, 0.741
1158.755, 0.070
1159.987, 27.523
1161.220, 13.916
1162.452, 27.048
1163.684, 7.299
1164.916, 20.117
1166.148, 15.519
1167.379, 43.686
1168.611, 21.960
1169.842, 44.927
1171.073, 103.993
1172.304, 37.118
1173.534, 47.238
1174.765, 36.764
1175.995, 38.784
1177.225, 31.002
1178.455, 99.410
1179.685, 31.857
1180.915, 105.040
1182.144, 49.533
1183.374, 12.695
1184.603, 33.022
1185.832, 52.535
1187.060, 38.183
1188.289, 69.566
1189.518, 49.654
1190.746, 35.052
1191.974, 18.708
1193.202, 1.283
1194.430, 61.868
1195.657, 35.582
1196.884, 19.968
1198.112, 51.451
1199.339, 19.757
1200.566, 28.282
1201.792, 31.108
1203.019, 26.924
1204.245, 21.569
1205.471, 30.477
1206.697, 6.352
1207.923, 48.311
1209.149, 38.720
1210.374, 25.074
1211.600, 49.146
1212.825, 22.263
1214.050, 23.326
1215.275, 2.490
1216.499, 22.715
1217.724, 17.072
1218.948, 57.811
1220.172, 19.465
1221.396, 31.779
1222.620, 17.138
1223.843, 25.287
1225.067, 1.836
1226.290, 42.556
1227.513, 8.067
1228.736, 79.550
1229.959, 2.014
1231.181, 3.555
1232.404, 78.840
1233.626, 38.782
1234.848, 48.539
1236.070, 76.839
1237.291, 50.120
1238.513, 90.378
1239.734, 97.618
1240.955, 53.836
1242.177, 128.032
1243.397, 25.209
1244.618, 47.353
1245.838, 80.479
1247.059, 12.296
1248.279, 113.767
1249.499, 56.791
1250.719, 80.788
1251.938, 2.239
1253.158, 7.701
1254.377, 71.606
1255.596, 26.487
1256.815, 43.339
1258.034, 54.156
1259.253, 54.951
1260.471, 89.741
1261.689, 79.329
1262.907, 27.209
1264.125, 68.932
1265.343, 78.600
1266.561, 63.252
1267.778, 140.915
1268.995, 52.490
1270.212, 36.257
1271.429, 121.772
1272.646, 136.245
1273.862, 72.693
1275.079, 138.114
1276.295, 107.500
1277.511, 115.054
1278.727, 92.372
1279.943, 76.646
1281.158, 144.346
1282.373, 121.551
1283.589, 132.854
1284.804, 144.984
1286.019, 36.067
1287.233, 154.109
1288.448, 158.118
1289.662, 59.103
1290.876, 168.646
1292.090, 84.540
1293.304, 139.546
1294.518, 111.375
1295.731, 103.170
1296.944, 166.254
1298.158, 103.155
1299.371, 27.857
1300.583, 302.000
1301.796, 175.573
1303.008, 119.233
1304.221, 196.856
1305.433, 60.370
1306.645, 138.396
1307.856, 140.670
1309.068, 45.624
1310.280, 171.926
1311.491, 123.960
1312.702, 26.312
1313.913, 179.655
1315.124, 71.506
1316.334, 124.557
1317.545, 130.927
1318.755, 128.147
1319.965, 50.910
1321.175, 112.025
1322.385, 70.993
1323.594, 233.189
1324.804, 189.842
1326.013, 13.887
1327.222, 177.164
1328.431, 80.243
1329.639, 78.132
1330.848, 175.216
1332.056, 15.832
1333.265, 132.086
1334.473, 88.573
1335.680, 117.009
1336.888, 262.144
1338.096, 150.064
1339.303, 150.553
1340.510, 195.003
1341.717, 94.731
1342.924, 103.213
1344.131, 237.993
1345.337, 66.466
1346.544, 208.216
1347.750, 155.713
1348.956, 107.357
1350.162, 232.234
1351.367, 146.536
1352.573, 192.028
1353.778, 242.000
1354.983, 90.453
1356.188, 227.612
1357.393, 196.217
1358.598, 130.353
1359.802, 225.337
1361.007, 148.698
1362.211, 140.508
1363.415, 237.344
1364.619, 213.337
1365.822, 238.063
1367.026, 358.915
1368.229, 169.589
1369.432, 252.656
1370.635, 297.074
1371.838, 153.820
1373.041, 334.634
1374.243, 247.416
1375.446, 166.734
1376.648, 235.615
1377.850, 167.811
1379.052, 226.312
1380.253, 235.891
1381.455, 171.536
1382.656, 152.047
1383.857, 215.635
1385.058, 133.198
1386.259, 257.574
1387.459, 182.676
1388.660, 203.685
1389.860, 330.243
1391.060, 100.840
1392.260, 247.274
1393.460, 193.771
1394.660, 147.759
1395.859, 236.010
1397.059, 145.833
1398.258, 126.285
1399.457, 218.062
1400.655, 204.826
1401.854, 189.396
1403.052, 226.452
1404.251, 120.997
1405.449, 250.702
1406.647, 278.796
1407.845, 118.513
1409.042, 201.197
1410.240, 119.541
1411.437, 108.725
1412.634, 240.638
1413.831, 69.783
1415.028, 207.861
1416.224, 185.378
1417.421, 160.743
1418.617, 240.745
1419.813, 123.720
1421.009, 63.853
1422.205, 160.542
1423.401, 162.444
1424.596, 26.270
1425.791, 191.571
1426.986, 71.457
1428.181, 104.681
1429.376, 200.950
1430.571, 118.693
1431.765, 139.271
1432.960, 86.510
1434.154, 4.083
1435.348, 185.601
1436.541, 55.089
1437.735, 96.760
1438.929, 184.191
1440.122, 20.707
1441.315, 45.906
1442.508, 131.370
1443.701, 5.506
1444.893, 145.115
1446.086, 155.604
1447.278, 62.185
1448.470, 171.792
1449.662, 88.415
1450.854, 121.076
1452.046, 254.744
1453.237, 153.596
1454.428, 232.035
1455.619, 133.683
1456.810, 12.671
1458.001, 105.938
1459.192, 127.507
1460.382, 18.042
1461.573, 159.288
1462.763, 161.790
1463.953, 71.301
1465.143, 181.772
1466.332, 102.210
1467.522, 104.633
1468.711, 190.953
1469.900, 17.203
1471.089, 120.441
1472.278, 204.583
1473.467, 20.713
1474.655, 194.557
1475.843, 105.809
1477.032, 47.569
1478.220, 223.702
1479.407, 155.724
1480.595, 53.221
1481.783, 204.797
1482.970, 30.610
1484.157, 140.853
1485.344, 237.561
1486.531, 21.743
1487.718, 152.869
1488.904, 122.542
1490.090, 60.921
1491.277, 177.583
1492.463, 54.237
1493.648, 45.885
1494.834, 121.149
1496.020, 64.581
1497.205, 59.036
1498.390, 178.431
1499.575, 105.866
1500.760, 189.231
1501.945, 97.633
1503.129, 53.055
1504.314, 99.782
1505.498, 58.951
1506.682, 58.821
1507.866, 179.167
1509.049, 52.192
1510.233, 135.284
1511.416, 152.306
1512.600, 51.594
1513.783, 113.712
1514.966, 123.798
1516.148, 61.848
1517.331, 149.168
1518.513, 61.861
1519.695, 6.300
1520.878, 143.837
1522.059, 50.257
1523.241, 131.067
1524.423, 237.385
1525.604, 65.575
1526.785, 115.663
1527.967, 205.434
1529.147, 0.341
1530.328, 0.000
##END=



