##NAMES=Epidote
##RRUFFID=R050131
##IDEAL CHEMISTRY=Ca_2_Fe^3+^Al_2_(Si_2_O_7_)(SiO_4_)O(OH)
##LOCALITY=Calumet mine, Chaffee County, Colorado, USA
##OWNER=RRUFF
##SOURCE=Dave Bunk Minerals
##DESCRIPTION=Green prismatic crystal
##STATUS=The identification of this mineral has been confirmed by X-ray diffraction and chemical analysis
##URL=rruff.info/R050131
##MEASURED CHEMISTRY=Ca_2.00_Al_2.00_(Fe^3+^_0.75_Al_0.25_)(SiO_4_)(Si_2_O_7_)O(OH)
##PIN_ID=L00285
##ORIENTATION=Laser parallel to c* (0 0 1). Fiducial mark perpendicular to laser is parallel to -a [-1 0 0]
129.268, 0.000
130.655, 19.028
132.041, 2.903
133.427, 167.573
134.813, 181.317
136.199, 168.979
137.584, 370.275
138.970, 338.755
140.355, 367.836
141.740, 248.907
143.124, 270.427
144.509, 307.737
145.893, 327.882
147.277, 511.047
148.660, 411.272
150.044, 554.424
151.427, 534.221
152.810, 644.984
154.193, 699.129
155.576, 716.573
156.958, 1021.550
158.341, 1176.914
159.723, 1277.389
161.105, 1368.232
162.486, 1559.781
163.867, 1891.374
165.249, 1912.609
166.630, 2274.967
168.010, 2096.634
169.391, 2189.576
170.771, 2098.764
172.151, 1832.190
173.531, 1654.860
174.911, 1393.767
176.290, 1201.904
177.669, 845.261
179.049, 523.822
180.427, 315.570
181.806, 49.510
183.184, 78.408
184.562, 237.054
185.940, 161.616
187.318, 11.113
188.696, 73.484
190.073, 253.163
191.450, 218.958
192.827, 277.012
194.204, 134.729
195.580, 63.417
196.956, 85.990
198.332, 155.461
199.708, 344.846
201.084, 472.155
202.459, 768.396
203.834, 867.578
205.209, 1349.710
206.584, 1410.802
207.958, 1415.860
209.333, 1461.892
210.707, 1349.906
212.081, 1343.973
213.454, 988.270
214.828, 946.772
216.201, 934.460
217.574, 834.310
218.947, 955.301
220.320, 1033.406
221.692, 1323.604
223.064, 1433.877
224.436, 1754.216
225.808, 2053.595
227.179, 2311.970
228.551, 2796.330
229.922, 2937.669
231.293, 3333.991
232.663, 3135.300
234.034, 3113.599
235.404, 2883.893
236.774, 2567.626
238.144, 2395.705
239.514, 2234.603
240.883, 2286.819
242.252, 2483.911
243.621, 2814.978
244.990, 3225.990
246.359, 3509.166
247.727, 3890.096
249.095, 3818.062
250.463, 3811.078
251.831, 3583.145
253.198, 3304.392
254.566, 2976.561
255.933, 2673.878
257.299, 2584.732
258.666, 2462.950
260.033, 2270.900
261.399, 2114.919
262.765, 2073.008
264.131, 2085.167
265.496, 2234.393
266.862, 2632.688
268.227, 2955.053
269.592, 4029.542
270.957, 5308.046
272.321, 6741.621
273.685, 9035.269
275.050, 10958.984
276.413, 12942.769
277.777, 12676.616
279.141, 11220.534
280.504, 9294.519
281.867, 7088.576
283.230, 5742.708
284.592, 4346.911
285.955, 3889.192
287.317, 3375.550
288.679, 3051.986
290.041, 3052.503
291.403, 2762.099
292.764, 2776.776
294.125, 2659.451
295.486, 2659.696
296.847, 2845.552
298.207, 2713.475
299.568, 3201.184
300.928, 3013.669
302.288, 3199.888
303.647, 3228.845
305.007, 3181.562
306.366, 2954.062
307.725, 2605.277
309.084, 2449.087
310.443, 2126.479
311.801, 2128.747
313.159, 2154.688
314.517, 2133.525
315.875, 2327.200
317.233, 2224.735
318.590, 2235.123
319.947, 1994.984
321.304, 1796.786
322.661, 1602.861
324.018, 1270.769
325.374, 1230.606
326.730, 1075.286
328.086, 1145.853
329.442, 1094.437
330.797, 1028.080
332.153, 1133.780
333.508, 986.538
334.863, 1090.351
336.217, 998.218
337.572, 808.139
338.926, 667.113
340.280, 447.138
341.634, 263.214
342.988, 1.197
344.341, 117.724
345.694, 26.776
347.047, 123.201
348.400, 308.511
349.753, 495.845
351.105, 739.912
352.457, 788.238
353.809, 844.083
355.161, 760.651
356.512, 494.987
357.864, 383.559
359.215, 89.558
360.566, 104.339
361.916, 15.633
363.267, 46.023
364.617, 87.977
365.967, 62.790
367.317, 201.641
368.667, 143.528
370.016, 248.454
371.366, 254.416
372.715, 226.416
374.064, 102.453
375.412, 118.472
376.761, 191.379
378.109, 274.284
379.457, 422.208
380.805, 358.191
382.152, 480.215
383.500, 287.314
384.847, 183.436
386.194, 91.444
387.541, 464.357
388.887, 809.303
390.233, 1329.281
391.580, 1633.292
392.926, 1995.338
394.271, 1990.418
395.617, 1720.535
396.962, 1522.688
398.307, 971.881
399.652, 714.110
400.997, 427.362
402.341, 193.656
403.686, 142.001
405.030, 32.406
406.374, 18.887
407.717, 3.427
409.061, 114.049
410.404, 297.730
411.747, 442.479
413.090, 917.310
414.433, 1281.202
415.775, 2008.157
417.117, 2828.076
418.459, 4002.859
419.801, 5797.522
421.143, 7905.227
422.484, 11023.024
423.825, 13910.929
425.166, 17028.934
426.507, 18847.033
427.848, 19055.219
429.188, 18343.504
430.528, 16021.874
431.868, 14540.329
433.208, 12608.877
434.547, 11347.507
435.887, 10436.237
437.226, 9495.059
438.565, 9573.968
439.904, 9372.972
441.242, 9692.045
442.580, 10121.201
443.918, 10280.429
445.256, 11379.744
446.594, 12119.124
447.932, 13538.575
449.269, 15548.089
450.606, 16837.662
451.943, 19087.309
453.280, 19677.023
454.616, 21236.807
455.952, 21216.609
457.288, 21646.430
458.624, 22756.281
459.960, 21706.156
461.295, 21816.047
462.631, 20525.963
463.966, 19335.904
465.300, 18375.879
466.635, 16015.864
467.969, 15135.868
469.304, 13105.888
470.638, 11615.920
471.972, 10385.971
473.305, 8846.042
474.639, 7866.134
475.972, 6826.244
477.305, 6036.370
478.638, 5148.515
479.970, 4524.678
481.303, 4170.861
482.635, 3703.067
483.967, 3555.300
485.298, 3251.562
486.630, 3331.849
487.961, 3284.164
489.293, 3042.506
490.624, 3283.874
491.954, 3007.267
493.285, 2969.685
494.615, 2973.126
495.945, 2781.592
497.275, 3023.079
498.605, 2954.589
499.935, 3240.123
501.264, 3422.678
502.593, 3710.254
503.922, 4298.903
505.251, 4527.230
506.579, 5117.292
507.908, 5355.936
509.236, 5413.857
510.564, 5554.883
511.891, 5027.974
513.219, 4949.107
514.546, 4480.270
515.873, 4011.463
517.200, 3756.681
518.527, 3435.934
519.853, 3792.226
521.180, 4134.555
522.506, 4912.746
523.832, 5735.689
525.157, 6087.087
526.483, 5938.878
527.808, 5769.923
529.133, 4911.363
530.458, 3824.813
531.783, 2901.278
533.107, 2187.753
534.431, 1638.240
535.756, 1398.852
537.079, 1163.149
538.403, 981.693
539.727, 1031.043
541.050, 903.505
542.373, 971.401
543.696, 919.503
545.018, 1013.557
546.341, 1136.147
547.663, 1126.749
548.985, 1469.361
550.307, 1589.047
551.629, 1885.089
552.950, 2211.011
554.271, 2449.418
555.592, 2978.997
556.913, 3248.918
558.234, 4028.654
559.554, 5073.524
560.875, 6052.551
562.195, 8126.584
563.514, 10622.596
564.834, 14402.608
566.154, 18778.781
567.473, 21809.982
568.792, 24868.779
570.111, 22436.453
571.429, 17717.713
572.748, 13543.901
574.066, 9917.074
575.384, 7597.443
576.702, 5791.907
578.019, 4934.973
579.337, 4270.883
580.654, 3922.291
581.971, 4026.570
583.288, 3807.407
584.605, 4172.926
585.921, 4438.696
587.237, 4788.802
588.553, 5469.854
589.869, 5838.302
591.185, 6760.099
592.500, 7312.052
593.815, 8176.808
595.130, 9590.229
596.445, 10722.513
597.760, 12646.171
599.074, 13855.561
600.389, 15426.149
601.703, 16885.875
603.016, 16567.686
604.330, 16616.562
605.644, 15394.595
606.957, 14111.901
608.270, 12928.802
609.583, 11267.126
610.895, 10337.813
612.208, 9234.595
613.520, 8511.812
614.832, 8016.133
616.144, 7031.522
617.455, 6504.352
618.767, 5635.056
620.078, 4993.648
621.389, 4292.071
622.700, 3671.884
624.011, 3325.465
625.321, 2797.799
626.631, 2437.769
627.941, 2271.844
629.251, 1870.737
630.561, 1794.803
631.870, 1545.702
633.180, 1337.436
634.489, 1184.083
635.798, 1082.396
637.106, 998.858
638.415, 829.920
639.723, 754.946
641.031, 669.177
642.339, 560.109
643.647, 529.734
644.954, 470.763
646.261, 455.344
647.568, 442.883
648.875, 401.169
650.182, 480.415
651.488, 380.618
652.795, 442.779
654.101, 499.897
655.407, 488.973
656.712, 641.005
658.018, 680.994
659.323, 764.939
660.628, 940.840
661.933, 992.702
663.238, 1134.521
664.542, 1090.303
665.847, 1194.040
667.151, 1145.731
668.455, 1108.374
669.758, 1098.969
671.062, 1019.517
672.365, 1066.016
673.668, 1064.466
674.971, 968.867
676.274, 1091.219
677.577, 999.521
678.879, 1205.773
680.181, 1308.976
681.483, 1360.136
682.785, 1487.246
684.086, 1524.304
685.388, 1696.310
686.689, 1827.266
687.990, 1817.169
689.290, 1920.020
690.591, 1897.819
691.891, 1771.566
693.192, 1575.279
694.491, 1356.972
695.791, 1247.667
697.091, 1019.401
698.390, 938.158
699.689, 719.968
700.988, 624.781
702.287, 638.570
703.586, 444.305
704.884, 408.986
706.182, 311.612
707.480, 230.182
708.778, 262.694
710.076, 150.147
711.373, 112.539
712.670, 55.866
713.968, 22.127
715.264, 66.310
716.561, 50.425
717.857, 18.402
719.154, 13.564
720.450, 76.699
721.746, 14.965
723.041, 95.332
724.337, 55.841
725.632, 37.472
726.927, 94.216
728.222, 13.103
729.517, 124.091
730.811, 79.238
732.105, 96.521
733.400, 105.949
734.693, 71.527
735.987, 127.237
737.281, 157.108
738.574, 150.156
739.867, 129.378
741.160, 101.762
742.453, 139.294
743.745, 106.993
745.038, 97.842
746.330, 119.836
747.622, 106.986
748.913, 152.286
750.205, 131.759
751.496, 114.393
752.788, 137.179
754.079, 70.130
755.369, 90.207
756.660, 77.424
757.950, 111.770
759.241, 66.265
760.531, 53.884
761.820, 43.620
763.110, 38.466
764.399, 62.420
765.689, 101.492
766.978, 40.704
768.267, 49.022
769.555, 4.450
770.844, 22.964
772.132, 31.572
773.420, 0.721
774.708, 15.067
775.996, 29.943
777.283, 21.914
778.570, 3.975
779.857, 17.884
781.144, 40.676
782.431, 22.406
783.718, 36.074
785.004, 14.682
786.290, 21.224
787.576, 33.704
788.862, 41.126
790.147, 108.490
791.433, 60.799
792.718, 144.052
794.003, 140.253
795.288, 78.401
796.572, 137.494
797.857, 127.536
799.141, 158.527
800.425, 182.468
801.709, 179.359
802.992, 245.202
804.276, 260.000
805.559, 240.751
806.842, 319.458
808.125, 293.119
809.407, 382.736
810.690, 374.309
811.972, 444.837
813.254, 499.322
814.536, 506.764
815.818, 611.162
817.099, 619.518
818.381, 715.832
819.662, 849.104
820.943, 881.333
822.223, 1120.522
823.504, 1191.670
824.784, 1353.777
826.065, 1608.844
827.345, 1655.872
828.624, 2025.859
829.904, 2200.808
831.183, 2308.717
832.462, 2513.589
833.741, 2411.422
835.020, 2508.218
836.299, 2472.978
837.577, 2381.699
838.856, 2445.385
840.134, 2235.035
841.412, 2306.648
842.689, 2311.227
843.967, 2171.770
845.244, 2342.280
846.521, 2320.755
847.798, 2323.196
849.075, 2443.604
850.351, 2422.978
851.628, 2712.320
852.904, 2751.628
854.180, 2905.903
855.455, 3193.146
856.731, 3260.356
858.006, 3712.537
859.281, 3906.685
860.556, 4152.742
861.831, 4617.421
863.106, 4752.205
864.380, 5357.485
865.655, 5667.574
866.929, 6019.303
868.202, 6490.210
869.476, 6664.967
870.750, 6927.552
872.023, 6984.123
873.296, 6811.701
874.569, 7105.267
875.842, 6741.655
877.114, 6873.949
878.386, 6887.679
879.658, 6686.518
880.930, 7167.754
882.202, 7114.054
883.474, 7313.353
884.745, 7861.443
886.016, 8140.427
887.287, 8878.806
888.558, 9309.328
889.829, 10076.344
891.099, 10681.475
892.369, 10767.043
893.639, 11043.919
894.909, 10892.540
896.179, 10508.828
897.448, 10687.159
898.718, 10346.082
899.987, 10463.656
901.256, 10792.062
902.524, 10867.668
903.793, 11884.601
905.061, 12382.657
906.329, 13329.338
907.597, 14630.279
908.865, 15810.008
910.133, 17240.594
911.400, 18549.080
912.667, 19100.484
913.934, 21062.736
915.201, 21115.709
916.468, 21599.070
917.734, 21751.004
919.001, 20760.578
920.267, 21034.035
921.532, 19227.051
922.798, 18072.955
924.064, 16737.781
925.329, 14902.150
926.594, 13858.636
927.859, 12494.217
929.124, 11078.958
930.388, 10444.301
931.653, 8840.865
932.917, 8438.670
934.181, 7516.821
935.445, 6851.858
936.708, 6408.062
937.972, 5791.075
939.235, 5672.250
940.498, 5305.580
941.761, 4871.985
943.024, 4839.710
944.286, 4386.271
945.548, 4351.219
946.811, 4228.196
948.072, 4018.952
949.334, 4086.998
950.596, 3954.042
951.857, 4019.261
953.118, 4233.635
954.379, 4111.036
955.640, 4387.678
956.901, 4562.344
958.161, 4589.038
959.421, 4786.762
960.681, 4781.516
961.941, 4700.296
963.201, 4736.103
964.460, 4342.938
965.720, 4411.799
966.979, 4083.690
968.238, 3976.610
969.496, 3867.555
970.755, 3685.533
972.013, 3913.538
973.272, 3965.579
974.529, 4119.647
975.787, 4877.745
977.045, 5320.873
978.302, 6262.031
979.560, 7214.219
980.817, 8014.438
982.073, 9114.686
983.330, 9364.970
984.587, 9315.285
985.843, 9065.629
987.099, 7566.009
988.355, 6930.419
989.611, 5763.862
990.866, 4873.339
992.122, 4123.849
993.377, 3417.391
994.632, 2970.967
995.887, 2571.577
997.141, 2196.219
998.396, 1982.897
999.650, 1682.610
1000.904, 1588.358
1002.158, 1355.139
1003.412, 1100.958
1004.665, 1023.811
1005.918, 875.964
1007.172, 799.886
1008.425, 718.203
1009.677, 592.273
1010.930, 618.312
1012.182, 594.553
1013.434, 592.530
1014.687, 685.067
1015.938, 654.641
1017.190, 808.885
1018.441, 812.536
1019.693, 919.473
1020.944, 1040.043
1022.195, 1239.074
1023.445, 1385.996
1024.696, 1527.871
1025.946, 1577.362
1027.197, 1658.320
1028.446, 1724.211
1029.696, 1758.234
1030.946, 1935.355
1032.195, 1993.512
1033.445, 2234.259
1034.694, 2632.659
1035.942, 2788.051
1037.191, 3379.104
1038.440, 3925.494
1039.688, 4355.875
1040.936, 5069.170
1042.184, 5385.005
1043.432, 5935.332
1044.679, 6315.053
1045.927, 6242.627
1047.174, 6615.104
1048.421, 6398.220
1049.668, 5874.912
1050.914, 5715.782
1052.161, 5321.022
1053.407, 5027.140
1054.653, 4569.641
1055.899, 4263.745
1057.145, 4216.556
1058.391, 4029.427
1059.636, 3919.895
1060.881, 3996.516
1062.126, 3685.632
1063.371, 3675.621
1064.615, 3502.230
1065.860, 3279.289
1067.104, 3251.427
1068.348, 2930.437
1069.592, 3151.779
1070.836, 3295.126
1072.079, 3376.550
1073.323, 4020.463
1074.566, 4232.627
1075.809, 4966.991
1077.052, 5905.109
1078.294, 6680.539
1079.537, 7962.227
1080.779, 9088.302
1082.021, 10275.374
1083.263, 12170.391
1084.504, 13506.603
1085.746, 15621.925
1086.987, 17666.896
1088.228, 18724.451
1089.469, 20520.822
1090.710, 20626.859
1091.951, 19072.742
1093.191, 17708.156
1094.431, 14444.011
1095.671, 11641.441
1096.911, 9176.648
1098.151, 7059.382
1099.390, 5453.120
1100.630, 4005.585
1101.869, 3212.340
1103.108, 2728.330
1104.346, 2096.695
1105.585, 1865.265
1106.823, 1543.179
1108.062, 1277.473
1109.300, 1200.833
1110.537, 1036.348
1111.775, 921.195
1113.013, 893.707
1114.250, 677.440
1115.487, 696.533
1116.724, 688.107
1117.961, 553.762
1119.197, 580.066
1120.434, 536.700
1121.670, 516.622
1122.906, 509.333
1124.142, 411.122
1125.377, 486.988
1126.613, 401.760
1127.848, 358.658
1129.083, 448.526
1130.318, 335.394
1131.553, 369.098
1132.787, 325.014
1134.022, 276.841
1135.256, 328.337
1136.490, 307.223
1137.724, 262.229
1138.957, 316.442
1140.191, 240.401
1141.424, 262.783
1142.657, 259.951
1143.890, 190.893
1145.123, 221.021
1146.355, 188.531
1147.588, 175.687
1148.820, 149.007
1150.052, 106.117
1151.284, 123.802
1152.516, 64.966
1153.747, 19.895
1154.978, 50.249
1156.209, 24.173
1157.440, 5.169
1158.671, 22.314
1159.902, 12.328
1161.132, 41.793
1162.362, 22.939
1163.592, 22.255
1164.822, 14.860
1166.052, 98.874
1167.281, 29.191
1168.511, 46.358
1169.740, 78.811
1170.969, 51.160
1172.197, 47.472
1173.426, 34.253
1174.654, 13.881
1175.883, 39.365
1177.111, 39.968
1178.338, 10.032
1179.566, 59.964
1180.794, 24.407
1182.021, 59.297
1183.248, 56.224
1184.475, 46.244
1185.702, 50.282
1186.928, 47.364
1188.155, 20.178
1189.381, 50.051
1190.607, 36.839
1191.833, 60.839
1193.059, 88.921
1194.284, 31.020
1195.509, 20.567
1196.735, 81.820
1197.960, 9.615
1199.184, 68.749
1200.409, 47.028
1201.633, 11.674
1202.858, 73.725
1204.082, 33.234
1205.306, 13.773
1206.529, 22.193
1207.753, 3.782
1208.976, 10.965
1210.199, 55.875
1211.422, 14.557
1212.645, 36.267
1213.868, 19.017
1215.090, 30.800
1216.313, 17.623
1217.535, 1.521
1218.757, 30.361
1219.978, 14.714
1221.200, 11.768
1222.421, 7.201
1223.643, 17.796
1224.864, 4.230
1226.084, 6.290
1227.305, 5.614
1228.526, 8.513
1229.746, 35.321
1230.966, 9.133
1232.186, 30.913
1233.406, 51.670
1234.625, 7.593
1235.845, 14.100
1237.064, 22.765
1238.283, 28.406
1239.502, 44.018
1240.721, 33.603
1241.939, 4.143
1243.157, 71.649
1244.376, 17.134
1245.594, 51.585
1246.811, 10.015
1248.029, 9.550
1249.247, 45.894
1250.464, 38.292
1251.681, 65.734
1252.898, 55.054
1254.115, 46.338
1255.331, 46.655
1256.548, 88.863
1257.764, 67.049
1258.980, 105.208
1260.196, 77.364
1261.411, 65.528
1262.627, 136.681
1263.842, 98.735
1265.057, 65.154
1266.272, 118.150
1267.487, 51.119
1268.702, 113.170
1269.916, 101.067
1271.130, 95.932
1272.344, 117.765
1273.558, 99.550
1274.772, 107.414
1275.986, 113.282
1277.199, 72.039
1278.412, 113.858
1279.625, 144.497
1280.838, 85.093
1282.051, 137.648
1283.263, 115.133
1284.475, 103.699
1285.687, 136.254
1286.899, 99.683
1288.111, 113.255
1289.323, 160.577
1290.534, 120.919
1291.745, 101.373
1292.957, 123.684
1294.167, 114.918
1295.378, 138.413
1296.589, 100.525
1297.799, 133.621
1299.009, 143.669
1300.219, 145.420
1301.429, 111.475
1302.639, 94.082
1303.848, 78.929
1305.057, 127.973
1306.267, 118.736
1307.476, 69.693
1308.684, 112.151
1309.893, 94.525
1311.101, 90.237
1312.310, 110.605
1313.518, 103.652
1314.725, 117.156
1315.933, 109.128
1317.141, 106.267
1318.348, 134.435
1319.555, 122.337
1320.762, 114.212
1321.969, 120.478
1323.176, 92.652
1324.382, 87.750
1325.589, 107.857
1326.795, 83.401
1328.001, 82.353
1329.206, 152.358
1330.412, 83.735
1331.617, 162.842
1332.823, 69.996
1334.028, 121.332
1335.233, 111.143
1336.437, 126.539
1337.642, 131.569
1338.846, 122.796
1340.051, 83.179
1341.255, 146.975
1342.458, 88.241
1343.662, 110.380
1344.866, 121.784
1346.069, 115.787
1347.272, 138.463
1348.475, 151.585
1349.678, 147.057
1350.880, 112.508
1352.083, 189.407
1353.285, 109.194
1354.487, 168.542
1355.689, 144.048
1356.891, 159.966
1358.093, 152.466
1359.294, 177.916
1360.495, 192.530
1361.696, 208.895
1362.897, 166.226
1364.098, 175.546
1365.298, 180.360
1366.499, 188.947
1367.699, 191.356
1368.899, 203.064
1370.099, 200.444
1371.298, 208.586
1372.498, 178.421
1373.697, 172.217
1374.896, 176.072
1376.095, 168.260
1377.294, 162.428
1378.493, 179.186
1379.691, 169.736
1380.889, 179.334
1382.087, 164.637
1383.285, 142.564
1384.483, 171.688
1385.681, 120.883
1386.878, 157.127
1388.075, 114.317
1389.272, 119.269
1390.469, 144.632
1391.666, 101.152
1392.862, 90.233
1394.059, 95.006
1395.255, 76.116
1396.451, 100.432
1397.647, 103.609
1398.842, 89.656
1400.038, 144.766
1401.233, 109.854
1402.428, 125.187
1403.623, 101.712
1404.818, 93.083
1406.013, 88.731
1407.207, 125.715
1408.401, 45.884
1409.595, 113.628
1410.789, 113.975
1411.983, 74.755
1413.177, 110.163
1414.370, 104.608
1415.563, 93.769
1416.756, 100.035
1417.949, 63.345
1419.142, 54.980
1420.335, 69.901
1421.527, 49.749
1422.719, 76.842
1423.911, 75.372
1425.103, 70.906
1426.295, 102.089
1427.486, 45.847
1428.677, 41.602
1429.869, 59.834
1431.060, 30.160
1432.250, 64.926
1433.441, 51.071
1434.632, 28.475
1435.822, 41.244
1437.012, 50.763
1438.202, 16.240
1439.392, 75.998
1440.581, 57.776
1441.771, 63.577
1442.960, 84.384
1444.149, 43.180
1445.338, 55.968
1446.527, 72.759
1447.715, 24.564
1448.904, 37.358
1450.092, 73.126
1451.280, 40.898
1452.468, 78.633
1453.656, 53.388
1454.843, 39.153
1456.031, 71.883
1457.218, 30.293
1458.405, 62.468
1459.592, 37.889
1460.778, 85.185
1461.965, 38.609
1463.151, 46.799
1464.337, 45.943
1465.523, 40.224
1466.709, 53.148
1467.895, 64.401
1469.080, 48.700
1470.266, 36.319
1471.451, 33.977
1472.636, 43.223
1473.821, 31.981
1475.005, 31.244
1476.190, 20.148
1477.374, 31.500
1478.558, 26.066
1479.742, 50.243
1480.926, 58.733
1482.109, 48.265
1483.293, 51.476
1484.476, 52.321
1485.659, 60.433
1486.842, 9.413
1488.025, 49.706
1489.207, 48.643
1490.390, 25.731
1491.572, 67.847
1492.754, 67.107
1493.936, 23.365
1495.118, 35.676
1496.299, 19.909
1497.481, 28.185
1498.662, 49.130
1499.843, 38.332
1501.024, 42.814
1502.205, 38.290
1503.385, 10.818
1504.565, 28.225
1505.746, 6.457
1506.926, 26.686
1508.106, 55.887
1509.285, 37.975
1510.465, 5.117
1511.644, 53.152
1512.823, 16.750
1514.002, 0.520
1515.181, 12.981
1516.360, 24.341
1517.538, 46.977
1518.717, 0.243
1519.895, 0.000
##END=



