##NAMES=Fluorapatite
##RRUFFID=R050122
##IDEAL CHEMISTRY=Ca_5_(PO_4_)_3_F
##LOCALITY=Cruziero mine, San Jose, Minas Gerais, Brazil
##OWNER=RRUFF
##SOURCE=Carlos and Paulo Vasconcelos
##DESCRIPTION=Green fragment
##STATUS=The identification of this mineral has been confirmed by X-ray diffraction and chemical analysis
##URL=rruff.info/R050122
##MEASURED CHEMISTRY=(Ca_4.99_Mn_0.01_)_Î£=5_(P_1.00_O_4_)_3_F_1.00_; trace amounts of Fe
##PIN_ID=L00501
##ORIENTATION=Laser parallel to c* (0 0 1). Fiducial mark perpendicular to laser is parallel to a [1 0 0]
148.250, 0.000
149.635, 6.032
151.019, 151.393
152.403, 3.211
153.788, 223.865
155.171, 157.191
156.555, 206.723
157.939, 334.771
159.322, 216.591
160.705, 279.971
162.088, 235.424
163.470, 196.776
164.853, 129.072
166.235, 156.205
167.617, 229.595
168.998, 183.793
170.380, 153.996
171.761, 173.672
173.142, 79.567
174.523, 174.813
175.904, 99.899
177.284, 185.098
178.664, 12.565
180.044, 136.388
181.424, 76.679
182.803, 78.845
184.183, 114.928
185.562, 64.370
186.940, 161.298
188.319, 158.702
189.698, 162.003
191.076, 82.718
192.454, 111.149
193.831, 211.613
195.209, 67.403
196.586, 115.260
197.963, 49.692
199.340, 211.704
200.717, 142.197
202.093, 83.185
203.470, 140.139
204.846, 65.988
206.221, 197.552
207.597, 157.168
208.972, 86.719
210.347, 225.338
211.722, 106.854
213.097, 213.939
214.472, 130.038
215.846, 142.711
217.220, 156.657
218.594, 34.240
219.967, 226.794
221.341, 67.167
222.714, 148.431
224.087, 78.359
225.460, 142.662
226.832, 188.462
228.204, 159.826
229.577, 176.856
230.948, 34.268
232.320, 236.647
233.692, 129.355
235.063, 147.707
236.434, 256.511
237.805, 245.860
239.175, 261.594
240.545, 152.468
241.916, 248.751
243.286, 149.568
244.655, 220.450
246.025, 272.353
247.394, 118.539
248.763, 238.360
250.132, 150.344
251.501, 213.622
252.869, 110.813
254.237, 166.602
255.605, 161.253
256.973, 148.383
258.340, 309.756
259.708, 156.868
261.075, 266.398
262.442, 339.605
263.808, 301.061
265.175, 335.676
266.541, 298.007
267.907, 425.811
269.273, 344.012
270.639, 236.549
272.004, 198.150
273.369, 280.315
274.734, 321.288
276.099, 87.227
277.463, 186.974
278.828, 153.478
280.192, 109.759
281.556, 154.806
282.919, 52.864
284.283, 259.757
285.646, 50.710
287.009, 158.428
288.372, 139.711
289.734, 166.499
291.097, 228.485
292.459, 100.089
293.821, 235.082
295.183, 91.058
296.544, 160.923
297.905, 170.724
299.266, 104.453
300.627, 111.107
301.988, 0.689
303.348, 243.198
304.709, 45.634
306.069, 192.578
307.428, 267.396
308.788, 101.655
310.147, 269.789
311.507, 13.332
312.865, 68.012
314.224, 194.797
315.583, 92.950
316.941, 301.196
318.299, 119.466
319.657, 178.329
321.015, 107.151
322.372, 105.136
323.729, 38.096
325.086, 135.792
326.443, 194.301
327.800, 46.875
329.156, 130.642
330.512, 69.734
331.868, 47.585
333.224, 215.676
334.579, 14.586
335.935, 122.817
337.290, 111.533
338.645, 89.189
339.999, 284.438
341.354, 7.725
342.708, 189.796
344.062, 2.122
345.416, 194.685
346.769, 62.817
348.123, 169.615
349.476, 216.830
350.829, 124.721
352.182, 161.998
353.534, 129.976
354.887, 266.327
356.239, 183.620
357.591, 11.087
358.942, 267.564
360.294, 145.176
361.645, 220.909
362.996, 168.480
364.347, 116.185
365.698, 152.117
367.048, 10.154
368.398, 176.338
369.748, 93.903
371.098, 250.266
372.448, 106.776
373.797, 25.665
375.146, 271.705
376.495, 82.105
377.844, 204.488
379.192, 120.722
380.540, 189.134
381.889, 224.038
383.236, 134.385
384.584, 164.861
385.932, 91.516
387.279, 293.014
388.626, 217.889
389.973, 14.880
391.319, 240.753
392.666, 46.937
394.012, 222.040
395.358, 187.128
396.704, 122.922
398.049, 258.078
399.394, 36.873
400.740, 169.037
402.084, 153.667
403.429, 69.077
404.774, 283.612
406.118, 108.743
407.462, 273.950
408.806, 98.478
410.150, 123.164
411.493, 128.120
412.836, 12.887
414.179, 367.049
415.522, 39.603
416.865, 254.200
418.207, 187.609
419.549, 80.896
420.891, 334.254
422.233, 107.431
423.575, 340.667
424.916, 63.840
426.257, 266.911
427.598, 219.927
428.939, 183.681
430.279, 326.569
431.619, 229.400
432.959, 432.825
434.299, 255.488
435.639, 408.459
436.978, 551.042
438.318, 363.421
439.657, 817.099
440.996, 589.244
442.334, 731.137
443.673, 954.425
445.011, 615.909
446.349, 1048.287
447.687, 779.640
449.024, 811.379
450.361, 942.991
451.699, 664.650
453.036, 846.505
454.372, 537.771
455.709, 529.613
457.045, 550.848
458.381, 452.195
459.717, 483.538
461.053, 254.536
462.388, 486.496
463.724, 266.691
465.059, 208.201
466.394, 331.540
467.728, 162.866
469.063, 395.982
470.397, 217.161
471.731, 228.436
473.065, 172.745
474.398, 203.384
475.732, 363.239
477.065, 143.732
478.398, 325.293
479.731, 176.948
481.063, 177.265
482.396, 368.239
483.728, 201.129
485.060, 518.715
486.391, 211.175
487.723, 121.048
489.054, 427.416
490.385, 57.622
491.716, 307.737
493.047, 240.016
494.377, 59.576
495.708, 183.192
497.038, 72.192
498.368, 291.768
499.697, 88.162
501.027, 221.183
502.356, 223.812
503.685, 143.849
505.014, 461.229
506.342, 101.460
507.671, 409.437
508.999, 238.954
510.327, 87.836
511.655, 216.126
512.982, 65.995
514.310, 374.102
515.637, 180.850
516.964, 138.800
518.291, 307.010
519.617, 85.964
520.944, 533.496
522.270, 82.812
523.596, 60.654
524.921, 388.319
526.247, 26.604
527.572, 283.433
528.897, 52.396
530.222, 279.587
531.547, 186.929
532.871, 5.453
534.196, 290.526
535.520, 268.872
536.844, 139.872
538.167, 217.072
539.491, 5.317
540.814, 401.134
542.137, 35.437
543.460, 420.770
544.783, 78.032
546.105, 44.489
547.427, 480.982
548.749, 17.816
550.071, 241.564
551.393, 100.408
552.714, 226.604
554.035, 332.416
555.356, 131.080
556.677, 287.400
557.998, 304.006
559.318, 86.809
560.638, 362.811
561.958, 148.430
563.278, 353.686
564.597, 179.078
565.917, 165.852
567.236, 311.041
568.555, 212.594
569.874, 187.918
571.192, 192.248
572.511, 347.119
573.829, 512.314
575.147, 383.904
576.464, 620.057
577.782, 744.314
579.099, 939.277
580.416, 1324.482
581.733, 1249.260
583.050, 1454.152
584.366, 678.775
585.683, 1095.094
586.999, 268.943
588.315, 503.844
589.630, 677.975
590.946, 301.686
592.261, 757.006
593.576, 380.600
594.891, 622.066
596.206, 376.416
597.520, 150.221
598.834, 624.951
600.148, 468.641
601.462, 162.508
602.776, 556.037
604.089, 409.496
605.402, 814.596
606.715, 1027.908
608.028, 1035.088
609.341, 1118.748
610.653, 721.836
611.965, 846.488
613.277, 449.430
614.589, 442.297
615.901, 655.924
617.212, 468.678
618.523, 752.201
619.834, 234.395
621.145, 547.598
622.456, 440.613
623.766, 12.223
625.076, 419.166
626.386, 61.014
627.696, 333.125
629.006, 434.949
630.315, 13.801
631.624, 378.775
632.933, 90.283
634.242, 402.008
635.551, 283.494
636.859, 114.596
638.167, 546.021
639.475, 226.766
640.783, 288.381
642.090, 314.305
643.398, 5.361
644.705, 509.242
646.012, 308.893
647.318, 290.283
648.625, 230.500
649.931, 0.713
651.237, 661.779
652.543, 28.295
653.849, 491.080
655.155, 300.916
656.460, 140.590
657.765, 753.938
659.070, 36.850
660.375, 163.094
661.679, 432.066
662.984, 81.875
664.288, 530.225
665.592, 194.139
666.895, 372.908
668.199, 401.977
669.502, 60.500
670.805, 408.619
672.108, 81.352
673.411, 676.688
674.713, 124.598
676.016, 263.016
677.318, 580.848
678.620, 90.395
679.921, 367.564
681.223, 334.764
682.524, 203.580
683.825, 299.922
685.126, 54.557
686.427, 351.084
687.727, 516.119
689.028, 233.264
690.328, 538.094
691.628, 178.008
692.927, 275.277
694.227, 342.719
695.526, 140.191
696.825, 525.305
698.124, 55.777
699.423, 406.701
700.721, 174.609
702.020, 271.547
703.318, 607.080
704.616, 275.584
705.913, 440.525
707.211, 6.943
708.508, 185.016
709.805, 531.201
711.102, 7.758
712.399, 193.898
713.695, 240.236
714.992, 206.859
716.288, 252.055
717.584, 308.393
718.879, 285.133
720.175, 561.291
721.470, 29.439
722.765, 554.660
724.060, 59.000
725.355, 227.373
726.649, 452.398
727.944, 137.764
729.238, 533.320
730.532, 239.818
731.825, 95.416
733.119, 951.242
734.412, 167.668
735.705, 343.359
736.998, 198.980
738.291, 384.531
739.584, 140.014
740.876, 35.922
742.168, 641.252
743.460, 145.715
744.752, 621.240
746.043, 436.369
747.334, 170.768
748.626, 595.760
749.916, 59.648
751.207, 345.152
752.498, 509.506
753.788, 212.973
755.078, 478.119
756.368, 382.654
757.658, 546.266
758.947, 450.676
760.237, 44.775
761.526, 589.094
762.815, 6.699
764.104, 317.801
765.392, 631.844
766.680, 45.826
767.969, 520.426
769.257, 504.180
770.544, 245.707
771.832, 559.428
773.119, 233.072
774.406, 396.666
775.693, 269.205
776.980, 172.674
778.267, 555.943
779.553, 23.541
780.839, 280.146
782.125, 461.439
783.411, 293.969
784.697, 526.865
785.982, 35.506
787.267, 538.045
788.552, 201.764
789.837, 154.285
791.122, 686.250
792.406, 157.455
793.690, 300.105
794.974, 261.664
796.258, 533.426
797.542, 495.357
798.825, 174.938
800.108, 637.410
801.391, 259.027
802.674, 130.508
803.957, 551.686
805.239, 90.420
806.522, 132.496
807.804, 489.305
809.085, 121.279
810.367, 482.494
811.649, 42.994
812.930, 634.840
814.211, 171.088
815.492, 301.586
816.772, 643.164
818.053, 593.229
819.333, 35.158
820.613, 645.238
821.893, 116.344
823.173, 447.523
824.452, 257.150
825.732, 118.279
827.011, 551.205
828.290, 322.455
829.568, 432.264
830.847, 232.609
832.125, 173.736
833.403, 443.273
834.681, 273.934
835.959, 234.426
837.236, 334.352
838.514, 85.377
839.791, 733.660
841.068, 95.660
842.345, 445.023
843.621, 535.768
844.898, 13.373
846.174, 556.021
847.450, 181.375
848.726, 231.383
850.001, 240.516
851.277, 30.955
852.552, 594.441
853.827, 237.564
855.102, 86.732
856.376, 366.273
857.651, 66.928
858.925, 706.412
860.199, 487.102
861.473, 175.574
862.746, 393.303
864.020, 393.600
865.293, 190.471
866.566, 279.297
867.839, 208.287
869.112, 667.105
870.384, 382.248
871.656, 11.438
872.928, 720.488
874.200, 19.797
875.472, 837.678
876.744, 167.324
878.015, 19.762
879.286, 1048.408
880.557, 312.045
881.828, 655.930
883.098, 165.250
884.369, 463.600
885.639, 641.318
886.909, 130.549
888.178, 438.518
889.448, 547.197
890.717, 335.248
891.987, 944.049
893.256, 161.807
894.524, 318.662
895.793, 547.686
897.061, 195.680
898.330, 574.652
899.598, 313.539
900.865, 431.293
902.133, 360.193
903.401, 421.600
904.668, 540.025
905.935, 228.857
907.202, 126.697
908.468, 885.480
909.735, 153.988
911.001, 572.727
912.267, 351.441
913.533, 238.416
914.799, 887.088
916.064, 151.793
917.330, 309.918
918.595, 538.518
919.860, 75.459
921.124, 1104.014
922.389, 137.453
923.653, 520.604
924.918, 749.029
926.182, 306.594
927.445, 794.830
928.709, 542.523
929.972, 539.797
931.236, 728.131
932.499, 61.535
933.761, 669.236
935.024, 607.537
936.286, 345.279
937.549, 793.547
938.811, 430.141
940.073, 948.398
941.334, 645.812
942.596, 313.020
943.857, 881.281
945.118, 358.496
946.379, 846.301
947.640, 1103.945
948.900, 1002.164
950.161, 1115.348
951.421, 1329.781
952.681, 1107.977
953.940, 1835.594
955.200, 1232.672
956.459, 2340.844
957.719, 2577.766
958.978, 3134.859
960.236, 5563.727
961.495, 8620.797
962.753, 14579.133
964.012, 22445.875
965.270, 23994.012
966.527, 21011.914
967.785, 13709.766
969.043, 7747.898
970.300, 5876.031
971.557, 2959.801
972.814, 2468.941
974.071, 1376.012
975.327, 954.105
976.583, 1382.395
977.840, 609.477
979.095, 807.594
980.351, 745.832
981.607, 493.945
982.862, 732.047
984.117, 609.434
985.372, 397.543
986.627, 686.328
987.882, 163.984
989.136, 592.055
990.390, 574.309
991.644, 82.414
992.898, 614.039
994.152, 17.859
995.405, 100.238
996.659, 710.547
997.912, 301.352
999.165, 435.934
1000.417, 386.164
1001.670, 503.863
1002.922, 850.770
1004.174, 71.105
1005.426, 756.668
1006.678, 495.184
1007.930, 63.414
1009.181, 750.539
1010.432, 28.750
1011.683, 417.074
1012.934, 833.055
1014.185, 71.379
1015.435, 919.773
1016.685, 178.762
1017.935, 487.020
1019.185, 1065.293
1020.435, 146.297
1021.684, 812.102
1022.934, 759.125
1024.183, 247.520
1025.432, 1273.129
1026.680, 334.832
1027.929, 1092.648
1029.177, 989.914
1030.425, 938.352
1031.673, 1636.410
1032.921, 1316.121
1034.169, 844.027
1035.416, 1392.477
1036.663, 141.957
1037.911, 1139.750
1039.157, 478.977
1040.404, 537.430
1041.650, 1125.898
1042.897, 545.648
1044.143, 643.621
1045.389, 962.156
1046.634, 72.008
1047.880, 1410.199
1049.125, 599.590
1050.371, 648.246
1051.615, 1306.898
1052.860, 466.781
1054.105, 825.477
1055.349, 1084.176
1056.593, 872.848
1057.837, 1080.996
1059.081, 1079.703
1060.325, 1337.984
1061.568, 1516.680
1062.812, 505.461
1064.055, 1194.125
1065.298, 922.840
1066.540, 261.180
1067.783, 1239.902
1069.025, 348.633
1070.267, 956.672
1071.509, 765.391
1072.751, 57.312
1073.993, 856.047
1075.234, 804.781
1076.475, 433.629
1077.716, 1262.359
1078.957, 551.098
1080.198, 999.836
1081.438, 1028.574
1082.679, 277.297
1083.919, 1006.098
1085.159, 554.898
1086.398, 653.797
1087.638, 1392.699
1088.877, 221.598
1090.116, 1090.500
1091.355, 819.395
1092.594, 659.625
1093.833, 1088.520
1095.071, 387.418
1096.309, 687.426
1097.547, 1146.316
1098.785, 124.801
1100.023, 944.949
1101.260, 703.840
1102.498, 322.723
1103.735, 1081.602
1104.972, 250.477
1106.208, 1019.809
1107.445, 788.676
1108.681, 37.539
1109.918, 676.387
1111.154, 165.234
1112.389, 405.109
1113.625, 703.949
1114.860, 72.785
1116.096, 671.609
1117.331, 370.422
1118.566, 289.223
1119.800, 718.012
1121.035, 3.191
1122.269, 535.906
1123.503, 1084.688
1124.737, 83.453
1125.971, 943.742
1127.205, 922.488
1128.438, 181.219
1129.671, 1222.035
1130.904, 130.738
1132.137, 301.168
1133.370, 1041.375
1134.602, 20.031
1135.834, 619.562
1137.066, 868.148
1138.298, 16.750
1139.530, 1449.863
1140.762, 38.121
1141.993, 467.762
1143.224, 1447.957
1144.455, 103.715
1145.686, 1217.543
1146.917, 580.453
1148.147, 61.074
1149.377, 1294.188
1150.607, 282.605
1151.837, 1061.004
1153.067, 1155.277
1154.296, 3.629
1155.526, 1515.707
1156.755, 613.602
1157.984, 401.867
1159.213, 1047.598
1160.441, 615.809
1161.670, 754.047
1162.898, 950.383
1164.126, 128.566
1165.354, 1266.703
1166.581, 327.875
1167.809, 515.949
1169.036, 1367.488
1170.263, 656.145
1171.490, 704.125
1172.717, 1305.098
1173.943, 36.980
1175.170, 1231.344
1176.396, 492.078
1177.622, 509.883
1178.848, 1360.410
1180.073, 129.219
1181.299, 1136.988
1182.524, 767.461
1183.749, 195.156
1184.974, 1522.797
1186.199, 263.066
1187.423, 900.633
1188.648, 1120.555
1189.872, 149.637
1191.096, 547.102
1192.320, 917.371
1193.543, 154.816
1194.767, 1181.961
1195.990, 332.227
1197.213, 1019.625
1198.436, 1307.012
1199.659, 229.074
1200.881, 836.434
1202.104, 1234.891
1203.326, 502.219
1204.548, 1269.531
1205.770, 879.500
1206.991, 826.785
1208.213, 1784.059
1209.434, 525.133
1210.655, 892.375
1211.876, 1171.688
1213.096, 578.898
1214.317, 1666.094
1215.537, 593.832
1216.757, 1170.980
1217.977, 1658.113
1219.197, 319.547
1220.417, 1616.262
1221.636, 1213.363
1222.855, 550.449
1224.074, 1987.516
1225.293, 656.590
1226.512, 904.012
1227.731, 1571.016
1228.949, 459.707
1230.167, 946.676
1231.385, 1783.613
1232.603, 754.055
1233.820, 1750.930
1235.038, 1228.508
1236.255, 795.324
1237.472, 2232.090
1238.689, 329.137
1239.906, 1115.828
1241.122, 1712.484
1242.338, 389.371
1243.555, 1595.727
1244.771, 1031.926
1245.986, 445.055
1247.202, 1740.906
1248.417, 696.902
1249.633, 1422.551
1250.848, 1528.145
1252.063, 564.617
1253.277, 1730.066
1254.492, 1035.457
1255.706, 702.406
1256.920, 2107.684
1258.134, 442.734
1259.348, 1090.871
1260.562, 1815.992
1261.775, 750.453
1262.988, 1045.469
1264.201, 1500.332
1265.414, 775.352
1266.627, 1429.840
1267.839, 633.211
1269.052, 941.094
1270.264, 1915.355
1271.476, 348.945
1272.688, 1505.008
1273.899, 1399.047
1275.111, 222.781
1276.322, 2026.996
1277.533, 310.328
1278.744, 365.445
1279.955, 1849.086
1281.165, 521.688
1282.376, 1095.043
1283.586, 1158.035
1284.796, 49.922
1286.006, 1687.117
1287.215, 498.859
1288.425, 171.457
1289.634, 1163.957
1290.843, 161.648
1292.052, 1134.840
1293.261, 1207.105
1294.469, 473.457
1295.678, 1280.969
1296.886, 892.633
1298.094, 185.703
1299.302, 1205.797
1300.509, 104.164
1301.717, 817.418
1302.924, 1358.508
1304.131, 330.535
1305.338, 1021.738
1306.545, 772.340
1307.752, 177.164
1308.958, 874.125
1310.164, 883.125
1311.370, 143.141
1312.576, 1094.000
1313.782, 36.223
1314.987, 613.359
1316.193, 1232.840
1317.398, 152.211
1318.603, 821.883
1319.807, 657.664
1321.012, 166.641
1322.216, 1329.309
1323.421, 187.949
1324.625, 536.477
1325.829, 1105.484
1327.032, 193.773
1328.236, 971.742
1329.439, 868.270
1330.642, 205.184
1331.845, 1595.164
1333.048, 236.742
1334.251, 401.520
1335.453, 1707.488
1336.656, 77.996
1337.858, 836.805
1339.060, 1361.035
1340.261, 393.547
1341.463, 1591.723
1342.664, 887.035
1343.866, 82.211
1345.067, 1827.406
1346.267, 552.543
1347.468, 1077.637
1348.669, 1521.504
1349.869, 256.461
1351.069, 1671.246
1352.269, 1096.098
1353.469, 150.145
1354.668, 2074.773
1355.868, 349.113
1357.067, 923.391
1358.266, 1675.996
1359.465, 720.141
1360.664, 1122.840
1361.862, 1565.738
1363.061, 139.738
1364.259, 2083.695
1365.457, 937.004
1366.655, 900.863
1367.852, 2293.309
1369.050, 397.039
1370.247, 790.742
1371.444, 1854.402
1372.641, 22.402
1373.838, 1131.180
1375.035, 1532.551
1376.231, 206.957
1377.427, 2033.957
1378.623, 735.102
1379.819, 1067.145
1381.015, 2173.715
1382.211, 845.367
1383.406, 1534.477
1384.601, 2183.426
1385.796, 758.340
1386.991, 1770.797
1388.185, 1912.613
1389.380, 362.000
1390.574, 2106.934
1391.768, 768.047
1392.962, 1067.449
1394.156, 2402.777
1395.350, 546.289
1396.543, 1845.488
1397.736, 2260.332
1398.929, 264.426
1400.122, 2029.461
1401.315, 1817.750
1402.507, 192.625
1403.700, 2077.551
1404.892, 1062.871
1406.084, 1069.652
1407.276, 2062.832
1408.467, 602.492
1409.659, 1000.152
1410.850, 2087.230
1412.041, 71.609
1413.232, 1672.062
1414.423, 1678.125
1415.614, 244.809
1416.804, 2364.945
1417.994, 988.246
1419.184, 632.547
1420.374, 2455.316
1421.564, 368.500
1422.753, 1705.762
1423.943, 1676.727
1425.132, 855.305
1426.321, 1697.691
1427.510, 1193.480
1428.698, 29.285
1429.887, 1936.332
1431.075, 741.316
1432.263, 948.184
1433.451, 2059.121
1434.639, 356.387
1435.827, 1240.887
1437.014, 1978.383
1438.201, 46.602
1439.388, 1501.062
1440.575, 1376.090
1441.762, 540.711
1442.949, 2365.211
1444.135, 435.367
1445.321, 800.293
1446.507, 1985.277
1447.693, 147.047
1448.879, 1582.484
1450.064, 1754.227
1451.250, 268.344
1452.435, 1736.863
1453.620, 1240.809
1454.805, 184.578
1455.989, 2211.570
1457.174, 615.012
1458.358, 587.148
1459.542, 2228.797
1460.726, 377.250
1461.910, 1203.504
1463.093, 2124.707
1464.277, 35.598
1465.460, 1728.094
1466.643, 1408.262
1467.826, 118.820
1469.009, 2331.148
1470.191, 440.398
1471.373, 538.156
1472.556, 2288.141
1473.738, 2.117
1474.919, 0.000
##END=



