##NAMES=Fluorite
##RRUFFID=R060548
##IDEAL CHEMISTRY=CaF_2_
##LOCALITY=unknown
##OWNER=RRUFF
##SOURCE=Gemological Institute of America
##DESCRIPTION=Pale blue fragment
##STATUS=The identification of this mineral has been confirmed by X-ray diffraction and chemical analysis
##URL=rruff.info/R060548
##MEASURED CHEMISTRY=Ca_1.00_F_2.00_
##PIN_ID=L01039
##ORIENTATION=Laser parallel to -a* (-1 0 0). Fiducial mark perpendicular to laser is parallel to b [0 1 0]
177.7810, 0.0000000E+00
179.0090, 120.6641
180.2370, 2.070313
181.4640, 111.2402
182.6920, 106.3945
183.9190, 157.9697
185.1460, 49.33008
186.3730, 130.5332
187.6000, 150.3545
188.8270, 209.7969
190.0530, 220.8174
191.2800, 299.3691
192.5060, 217.3965
193.7320, 358.2373
194.9580, 313.6846
196.1830, 163.6465
197.4090, 385.0439
198.6340, 278.8145
199.8590, 294.9043
201.0840, 349.2705
202.3090, 447.8730
203.5340, 211.6836
204.7580, 150.0156
205.9820, 50.27930
207.2060, 119.4375
208.4300, 48.13965
209.6540, 215.8848
210.8780, 112.7090
212.1010, 144.6094
213.3240, 277.5820
214.5470, 99.61133
215.7700, 138.6846
216.9930, 290.7930
218.2150, 365.9316
219.4380, 397.0938
220.6600, 572.2754
221.8820, 698.4727
223.1040, 883.6816
224.3260, 1168.900
225.5470, 1033.127
226.7680, 1247.359
227.9900, 992.5967
229.2110, 976.8379
230.4310, 829.0820
231.6520, 893.9541
232.8720, 821.0830
234.0930, 962.9297
235.3130, 871.4805
236.5330, 1009.117
237.7530, 884.9961
238.9720, 1076.210
240.1920, 1201.854
241.4110, 1168.812
242.6300, 1224.561
243.8490, 1177.430
245.0680, 1134.319
246.2860, 1022.572
247.5040, 922.7734
248.7230, 806.9209
249.9410, 829.0186
251.1590, 854.0605
252.3760, 947.0527
253.5940, 861.0020
254.8110, 654.9180
256.0280, 740.8047
257.2450, 709.6631
258.4620, 930.4980
259.6790, 1561.310
260.8950, 1764.100
262.1120, 1810.867
263.3280, 1527.617
264.5440, 1345.348
265.7600, 1224.041
266.9750, 960.7188
268.1910, 678.3770
269.4060, 398.0205
270.6210, 326.6494
271.8360, 436.2676
273.0510, 125.8730
274.2650, 142.4707
275.4800, 184.0586
276.6940, 19.63574
277.9080, 33.19824
279.1220, 49.74902
280.3360, 87.29980
281.5490, 71.84082
282.7630, 47.39258
283.9760, 117.9980
285.1890, 31.66895
286.4020, 153.6484
287.6150, 112.2002
288.8270, 31.89746
290.0400, 117.0303
291.2520, 59.11719
292.4640, 21.80859
293.6760, 248.3809
294.8870, 141.7021
296.0990, 309.3340
297.3100, 169.5537
298.5210, 363.4268
299.7320, 224.5449
300.9430, 498.7666
302.1540, 502.0488
303.3640, 563.4844
304.5750, 650.2871
305.7850, 1015.018
306.9950, 1118.312
308.2050, 1405.353
309.4140, 1621.090
310.6240, 2124.274
311.8330, 2496.589
313.0420, 3194.914
314.2510, 4011.944
315.4600, 5029.131
316.6680, 6320.885
317.8770, 8260.590
319.0850, 10250.35
320.2930, 12338.55
321.5010, 13832.11
322.7090, 14046.62
323.9160, 12913.68
325.1240, 11124.53
326.3310, 9084.189
327.5380, 7100.236
328.7450, 5674.342
329.9520, 4761.497
331.1580, 3730.690
332.3650, 3067.912
333.5710, 2801.157
334.7770, 2263.424
335.9830, 2120.708
337.1880, 2072.008
338.3940, 1679.262
339.5990, 1775.528
340.8040, 1753.806
342.0090, 1553.091
343.2140, 1469.382
344.4190, 1616.675
345.6230, 1265.971
346.8280, 1418.267
348.0320, 1343.561
349.2360, 1341.855
350.4400, 1560.145
351.6430, 1223.084
352.8470, 1352.352
354.0500, 1525.609
355.2530, 1220.855
356.4560, 1234.092
357.6590, 1322.313
358.8620, 1325.586
360.0640, 1308.783
361.2660, 1186.964
362.4680, 1272.629
363.6700, 1145.782
364.8720, 997.1475
366.0740, 1162.270
367.2750, 1005.725
368.4760, 856.1904
369.6770, 1248.804
370.8780, 1062.863
372.0790, 942.6553
373.2800, 925.6797
374.4800, 835.9736
375.6800, 888.2480
376.8800, 790.1582
378.0800, 881.5957
379.2800, 962.7363
380.4790, 785.8867
381.6790, 697.3809
382.8780, 866.5303
384.0770, 756.7852
385.2760, 644.3047
386.4750, 795.4736
387.6730, 740.5459
388.8720, 927.9658
390.0700, 901.2383
391.2680, 674.6367
392.4660, 789.1465
393.6630, 759.3711
394.8610, 672.0527
396.0580, 600.4941
397.2550, 494.9609
398.4520, 415.9121
399.6490, 567.7656
400.8460, 411.5654
402.0420, 250.1992
403.2390, 335.5107
404.4350, 153.9678
405.6310, 436.1953
406.8270, 174.5137
408.0220, 260.6826
409.2180, 126.9053
410.4130, 215.5742
411.6080, 171.0898
412.8030, 125.7090
413.9980, 139.3750
415.1920, 143.1104
416.3870, 101.6592
417.5810, 22.49805
418.7750, 269.3936
419.9690, 82.71875
421.1630, 15.42969
422.3570, 76.22949
423.5500, 32.19629
424.7430, 56.22168
425.9360, 60.80078
427.1290, 105.6572
428.3220, 74.09961
429.5150, 78.65137
430.7070, 15.20410
431.8990, 81.02441
433.0910, 38.56348
434.2830, 74.69043
435.4750, 97.90527
436.6670, 5.080078
437.8580, 141.5234
439.0490, 101.6533
440.2400, 198.9434
441.4310, 155.5371
442.6220, 209.1074
443.8130, 25.08398
445.0030, 168.8770
446.1930, 13.51172
447.3830, 356.7764
448.5730, 268.2734
449.7630, 284.7314
450.9520, 249.1113
452.1420, 311.5527
453.3310, 391.9922
454.5200, 331.2910
455.7090, 316.4922
456.8980, 368.6484
458.0860, 290.7705
459.2740, 226.8604
460.4630, 269.9160
461.6510, 428.9502
462.8380, 372.9570
464.0260, 585.9531
465.2140, 417.2969
466.4010, 540.4580
467.5880, 522.8467
468.7750, 406.5029
469.9620, 554.6758
471.1490, 560.7725
472.3350, 534.8398
473.5220, 562.8945
474.7080, 564.0645
475.8940, 556.2451
477.0800, 619.2334
478.2650, 577.3115
479.4510, 660.1934
480.6360, 544.1299
481.8210, 562.0342
483.0060, 452.9014
484.1910, 588.7393
485.3760, 460.5430
486.5600, 540.3359
487.7440, 449.1133
488.9290, 532.9043
490.1130, 746.6670
491.2960, 727.4424
492.4800, 632.1816
493.6630, 879.8828
494.8470, 687.5791
496.0300, 558.2402
497.2130, 619.8633
498.3960, 542.4453
499.5780, 612.9873
500.7610, 335.4883
501.9430, 427.9473
503.1250, 524.3662
504.3070, 234.7441
505.4890, 472.0762
506.6710, 301.3662
507.8520, 377.6123
509.0330, 274.8154
510.2140, 268.9756
511.3950, 231.0889
512.5760, 429.1572
513.7570, 182.1816
514.9370, 404.1582
516.1170, 295.0928
517.2980, 295.9814
518.4780, 501.8232
519.6570, 214.6240
520.8370, 280.6367
522.0160, 86.06738
523.1960, 190.8691
524.3750, 270.4736
525.5540, 241.0322
526.7320, 45.54102
527.9110, 76.23242
529.0890, 85.49609
530.2680, 114.2754
531.4460, 212.9355
532.6240, 2.904297
533.8010, 38.26953
534.9790, 208.4473
536.1560, 167.5723
537.3340, 68.45508
538.5110, 35.66406
539.6880, 29.42383
540.8650, 9.148438
542.0410, 90.65234
543.2180, 168.8984
544.3940, 68.60938
545.5700, 55.42578
546.7460, 148.2363
547.9220, 132.2676
549.0970, 41.89648
550.2730, 181.1895
551.4480, 79.95117
552.6230, 43.60352
553.7980, 78.53906
554.9730, 171.4277
556.1470, 65.97656
557.3210, 223.8008
558.4960, 146.3477
559.6700, 130.1289
560.8440, 356.2617
562.0170, 238.9297
563.1910, 246.7598
564.3640, 265.7168
565.5380, 158.3828
566.7110, 393.1738
567.8840, 371.9492
569.0560, 166.8398
570.2290, 312.6855
571.4010, 236.5195
572.5740, 128.4160
573.7460, 386.2539
574.9180, 760.6172
576.0890, 515.6309
577.2610, 598.1816
578.4320, 258.0176
579.6040, 321.9434
580.7750, 272.6621
581.9450, 175.7402
583.1160, 168.5938
584.2870, 439.6250
585.4570, 267.4238
586.6270, 387.2070
587.7980, 154.8555
588.9670, 340.1426
590.1370, 323.2207
591.3070, 435.3301
592.4760, 300.2520
593.6450, 290.3965
594.8140, 314.5117
595.9830, 441.5918
597.1520, 448.6348
598.3210, 476.8965
599.4890, 495.7598
600.6570, 472.7344
601.8250, 440.0488
602.9930, 402.0918
604.1610, 374.3945
605.3290, 259.1758
606.4960, 304.2988
607.6630, 284.3281
608.8300, 227.2188
609.9970, 348.3574
611.1640, 611.8184
612.3300, 401.4160
613.4970, 662.5781
614.6630, 315.8906
615.8290, 691.6523
616.9950, 1019.430
618.1610, 1054.504
619.3260, 1762.027
620.4920, 1533.975
621.6570, 1366.725
622.8220, 1719.008
623.9870, 1748.346
625.1520, 1854.012
626.3160, 1978.244
627.4810, 1717.678
628.6450, 1599.035
629.8090, 1369.699
630.9730, 1112.805
632.1370, 939.1367
633.3000, 740.2969
634.4640, 643.6172
635.6270, 764.3613
636.7900, 600.4316
637.9530, 652.3652
639.1160, 759.0508
640.2780, 619.6934
641.4410, 1117.225
642.6030, 1107.777
643.7650, 1175.285
644.9270, 1191.254
646.0890, 1322.676
647.2500, 1361.826
648.4120, 1359.160
649.5730, 1235.104
650.7340, 1157.975
651.8950, 1143.641
653.0560, 995.7988
654.2160, 911.1660
655.3770, 963.2383
656.5370, 577.9824
657.6970, 486.6816
658.8570, 579.6250
660.0170, 348.8906
661.1760, 236.3828
662.3360, 372.8066
663.4950, 510.8223
664.6540, 431.1250
665.8130, 556.2578
666.9720, 780.0664
668.1310, 878.1582
669.2890, 723.2793
670.4470, 563.9883
671.6050, 544.7734
672.7630, 368.3691
673.9210, 350.5645
675.0790, 393.4180
676.2360, 302.5273
677.3930, 269.8086
678.5510, 302.9961
679.7080, 402.6348
680.8640, 630.3008
682.0210, 542.9570
683.1770, 733.7148
684.3340, 819.7266
685.4900, 1247.527
686.6460, 1392.492
687.8020, 1572.299
688.9570, 1701.191
690.1130, 1712.961
691.2680, 1876.221
692.4230, 1990.568
693.5780, 1642.748
694.7330, 1838.562
695.8880, 1687.744
697.0420, 1443.797
698.1960, 1569.492
699.3510, 1441.066
700.5040, 1477.582
701.6580, 1463.629
702.8120, 1396.729
703.9650, 1612.949
705.1190, 1689.748
706.2720, 1494.410
707.4250, 1480.148
708.5780, 1830.244
709.7300, 1711.062
710.8830, 1741.654
712.0350, 1416.871
713.1870, 1436.014
714.3390, 1402.191
715.4910, 1244.393
716.6430, 1184.719
717.7940, 1182.762
718.9460, 1068.146
720.0970, 883.4121
721.2480, 949.3008
722.3990, 715.2324
723.5500, 631.8887
724.7000, 503.2695
725.8500, 441.4492
727.0010, 409.7578
728.1510, 459.3145
729.3010, 481.8203
730.4500, 464.1680
731.6000, 430.6543
732.7490, 426.9258
733.8980, 372.2617
735.0470, 310.6113
736.1960, 327.9238
737.3450, 161.2031
738.4940, 222.4414
739.6420, 17.64453
740.7900, 85.78711
741.9380, 35.11523
743.0860, 133.3770
744.2340, 29.56445
745.3810, 298.9355
746.5290, 73.69922
747.6760, 61.83594
748.8230, 146.3730
749.9700, 47.63672
751.1170, 14.22656
752.2630, 25.13477
753.4100, 19.83398
754.5560, 93.25586
755.7020, 103.8848
756.8480, 225.8438
757.9940, 36.53516
759.1390, 85.16602
760.2850, 273.7441
761.4300, 55.28711
762.5750, 153.7734
763.7200, 29.78125
764.8650, 17.42773
766.0100, 112.1641
767.1540, 36.96484
768.2980, 124.9688
769.4420, 157.9570
770.5860, 186.8418
771.7300, 34.31250
772.8740, 110.4375
774.0170, 170.1426
775.1610, 190.8105
776.3040, 373.4395
777.4470, 439.0312
778.5900, 523.5898
779.7320, 350.1113
780.8750, 446.5996
782.0170, 442.0527
783.1590, 626.4727
784.3010, 587.8574
785.4430, 637.2090
786.5850, 653.5234
787.7260, 633.8086
788.8680, 774.0605
790.0090, 724.2773
791.1500, 892.4629
792.2910, 991.6152
793.4310, 938.7363
794.5720, 1047.822
795.7120, 1266.877
796.8520, 1225.900
797.9920, 1367.633
799.1320, 1483.865
800.2720, 1498.650
801.4120, 1571.549
802.5510, 1676.422
803.6900, 1689.264
804.8290, 1956.078
805.9680, 2153.867
807.1070, 1950.631
808.2450, 2165.406
809.3840, 2301.154
810.5220, 2143.801
811.6600, 2336.357
812.7980, 2270.035
813.9360, 2534.445
815.0730, 2335.746
816.2110, 2252.170
817.3480, 2312.840
818.4850, 2260.492
819.6220, 2370.121
820.7590, 2078.777
821.8960, 2504.434
823.0320, 2302.090
824.1680, 2638.719
825.3040, 2529.322
826.4400, 2487.908
827.5760, 2874.523
828.7120, 3022.117
829.8470, 3048.707
830.9830, 3661.277
832.1180, 4114.818
833.2530, 5303.363
834.3880, 6130.883
835.5220, 7209.379
836.6570, 7164.850
837.7910, 7287.291
838.9250, 7047.465
840.0590, 7196.820
841.1930, 8637.969
842.3270, 8157.539
843.4600, 7946.928
844.5940, 7787.160
845.7270, 7068.031
846.8600, 6836.262
847.9930, 6596.188
849.1250, 6389.648
850.2580, 6850.764
851.3900, 7252.734
852.5230, 6602.916
853.6550, 6134.613
854.7870, 5380.248
855.9180, 4548.082
857.0500, 4415.863
858.1810, 3818.043
859.3130, 3737.598
860.4440, 3509.348
861.5750, 3041.061
862.7050, 2796.723
863.8360, 2266.342
864.9660, 2037.916
866.0970, 1673.445
867.2270, 1649.932
868.3570, 1269.371
869.4870, 1131.771
870.6160, 939.1250
871.7460, 1065.439
872.8750, 905.7090
874.0040, 1577.480
875.1330, 2730.467
876.2620, 1094.004
877.3910, 1683.938
878.5190, 1379.383
879.6470, 745.5742
880.7760, 708.2031
881.9040, 703.8438
883.0310, 633.5488
884.1590, 270.9316
885.2870, 283.9102
886.4140, 466.6758
887.5410, 90.80273
888.6680, 132.6719
889.7950, 313.9941
890.9220, 338.2246
892.0480, 577.1504
893.1750, 896.4336
894.3010, 917.2793
895.4270, 1019.252
896.5530, 1259.621
897.6790, 1078.867
898.8040, 1097.713
899.9300, 1529.928
901.0550, 1042.871
902.1800, 1049.822
903.3050, 1219.398
904.4300, 1318.465
905.5540, 2444.240
906.6790, 4453.121
907.8030, 4534.773
908.9270, 7096.939
910.0510, 11080.71
911.1750, 15927.56
912.2990, 18230.59
913.4220, 15912.60
914.5450, 12596.59
915.6690, 9569.566
916.7920, 8131.521
917.9140, 7795.461
919.0370, 8575.383
920.1600, 10702.29
921.2820, 12882.17
922.4040, 14141.04
923.5260, 13356.90
924.6480, 13607.74
925.7700, 14761.57
926.8910, 17506.39
928.0130, 18817.19
929.1340, 17171.98
930.2550, 14032.75
931.3760, 11882.52
932.4970, 10326.28
933.6170, 8898.023
934.7380, 8718.766
935.8580, 9848.500
936.9780, 11714.22
938.0980, 12735.94
939.2180, 11142.65
940.3370, 8533.355
941.4570, 7347.066
942.5760, 7234.773
943.6950, 8819.477
944.8140, 12212.18
945.9330, 18484.88
947.0520, 26200.59
948.1700, 31762.30
949.2890, 29437.02
950.4070, 22103.74
951.5250, 14578.46
952.6430, 8985.168
953.7600, 5739.879
954.8780, 4052.592
955.9950, 2623.301
957.1120, 2031.010
958.2290, 1622.719
959.3460, 1521.428
960.4630, 1141.137
961.5800, 1304.848
962.6960, 1155.561
963.8120, 1207.273
964.9280, 1129.990
966.0440, 940.7109
967.1600, 1016.438
968.2760, 881.1660
969.3910, 542.8984
970.5060, 580.6367
971.6210, 352.3809
972.7360, 7.867188
973.8510, 26.83203
974.9660, 11.50195
976.0800, 271.8867
977.1950, 322.4414
978.3090, 271.1953
979.4230, 464.1133
980.5370, 393.3008
981.6500, 291.7168
982.7640, 218.3047
983.8770, 123.0273
984.9900, 141.8379
986.1030, 537.7461
987.2160, 179.9473
988.3290, 341.2559
989.4420, 416.7520
990.5540, 173.4707
991.6660, 362.2871
992.7780, 250.2949
993.8900, 141.5684
995.0020, 31.44727
996.1140, 348.3262
997.2250, 766.2246
998.3360, 977.1465
999.4470, 1217.090
1000.558, 1478.055
1001.669, 1739.045
1002.780, 1852.064
1003.890, 1525.105
1005.001, 1066.176
1006.111, 1146.271
1007.221, 673.3945
1008.331, 680.5508
1009.440, 915.7383
1010.550, 916.9688
1011.659, 970.2344
1012.768, 1147.561
1013.877, 1204.969
1014.986, 1437.439
1016.095, 1784.039
1017.204, 1794.711
1018.312, 2039.230
1019.420, 2171.248
1020.528, 2302.133
1021.636, 2252.771
1022.744, 2427.439
1023.852, 2557.664
1024.959, 2859.445
1026.066, 2841.660
1027.173, 2915.926
1028.280, 2900.301
1029.387, 3154.639
1030.494, 3005.080
1031.600, 3043.590
1032.707, 3227.160
1033.813, 3047.816
1034.919, 2950.564
1036.025, 3000.422
1037.130, 2669.359
1038.236, 2765.414
1039.341, 2918.539
1040.446, 2540.730
1041.552, 2711.021
1042.656, 2705.385
1043.761, 2943.818
1044.866, 2721.328
1045.970, 2925.904
1047.074, 2629.553
1048.179, 2901.273
1049.282, 2919.066
1050.386, 3021.930
1051.490, 2892.875
1052.593, 2891.918
1053.697, 2664.980
1054.800, 2722.148
1055.903, 2500.395
1057.006, 2345.715
1058.108, 2395.115
1059.211, 2327.594
1060.313, 2306.150
1061.415, 2112.789
1062.517, 2199.506
1063.619, 1983.305
1064.721, 2026.184
1065.823, 2022.459
1066.924, 1793.502
1068.025, 1645.879
1069.126, 1775.277
1070.227, 1743.572
1071.328, 1801.953
1072.429, 1778.418
1073.529, 1507.373
1074.629, 1696.617
1075.729, 1670.342
1076.829, 1833.301
1077.929, 1935.793
1079.029, 1876.809
1080.128, 1787.459
1081.228, 1874.459
1082.327, 1826.309
1083.426, 1520.648
1084.525, 1570.080
1085.623, 1156.604
1086.722, 1364.217
1087.820, 979.9238
1088.919, 1136.721
1090.017, 813.6094
1091.115, 625.5918
1092.212, 996.6680
1093.310, 498.8359
1094.407, 723.1016
1095.505, 584.4590
1096.602, 217.9160
1097.699, 634.4648
1098.795, 437.1113
1099.892, 304.8535
1100.989, 294.6953
1102.085, 181.6348
1103.181, 112.6719
1104.277, 85.80664
1105.373, 261.2852
1106.469, 152.6582
1107.564, 187.3125
1108.660, 287.6133
1109.755, 234.1719
1110.850, 358.9648
1111.945, 254.1934
1113.040, 128.1426
1114.134, 250.4688
1115.229, 394.3418
1116.323, 459.6367
1117.417, 605.1484
1118.511, 479.5312
1119.605, 1050.471
1120.698, 1407.553
1121.792, 1333.516
1122.885, 1296.609
1123.978, 1688.389
1125.071, 1358.871
1126.164, 1246.236
1127.257, 1392.725
1128.349, 1600.344
1129.442, 1245.086
1130.534, 1772.957
1131.626, 1406.955
1132.718, 1381.078
1133.810, 1828.328
1134.901, 1837.703
1135.993, 1906.207
1137.084, 2167.838
1138.175, 2377.594
1139.266, 2517.477
1140.357, 2930.488
1141.448, 2863.625
1142.538, 3077.891
1143.628, 3618.279
1144.719, 3351.799
1145.809, 3168.441
1146.898, 3463.215
1147.988, 3252.770
1149.078, 3411.105
1150.167, 3488.371
1151.256, 3489.006
1152.345, 3182.754
1153.434, 3273.455
1154.523, 3205.543
1155.612, 3131.447
1156.700, 3279.021
1157.788, 3019.184
1158.877, 3164.018
1159.964, 3376.824
1161.052, 3223.627
1162.140, 3194.797
1163.227, 3344.326
1164.315, 3091.232
1165.402, 3062.500
1166.489, 2857.107
1167.576, 2665.973
1168.663, 2952.020
1169.749, 2758.223
1170.836, 2518.557
1171.922, 2340.016
1173.008, 2613.594
1174.094, 2383.297
1175.180, 2235.125
1176.265, 2288.082
1177.351, 1943.176
1178.436, 1778.406
1179.521, 1728.783
1180.606, 830.2949
1181.691, 1079.938
1182.776, 1224.703
1183.860, 699.5918
1184.944, 1141.598
1186.029, 845.7129
1187.113, 592.9395
1188.197, 463.2793
1189.280, 302.2695
1190.364, 429.2910
1191.447, 112.9668
1192.531, 305.7500
1193.614, 212.6426
1194.697, 222.6465
1195.779, 34.24023
1196.862, 23.97852
1197.945, 26.69336
1199.027, 19.26172
1200.109, 322.2754
1201.191, 97.91992
1202.273, 50.67383
1203.355, 231.4648
1204.436, 65.53125
1205.518, 196.5039
1206.599, 108.3535
1207.680, 64.12109
1208.761, 161.7891
1209.842, 62.37109
1210.922, 149.8555
1212.003, 64.25391
1213.083, 136.4434
1214.163, 344.2480
1215.243, 457.1523
1216.323, 294.1602
1217.402, 447.2734
1218.482, 391.4863
1219.561, 625.8027
1220.641, 547.2207
1221.720, 754.7383
1222.798, 750.3594
1223.877, 807.0781
1224.956, 671.8984
1226.034, 701.8164
1227.112, 783.8340
1228.191, 972.9492
1229.269, 1229.166
1230.346, 1077.475
1231.424, 1421.883
1232.501, 1515.391
1233.579, 1540.990
1234.656, 1808.686
1235.733, 1818.498
1236.810, 2102.418
1237.886, 1997.449
1238.963, 2242.648
1240.039, 2192.023
1241.116, 2527.555
1242.192, 2579.289
1243.268, 2523.207
1244.343, 2943.279
1245.419, 3026.488
1246.494, 3148.805
1247.570, 3767.238
1248.645, 3640.879
1249.720, 3699.639
1250.795, 4056.553
1251.869, 3878.641
1252.944, 4208.842
1254.018, 4389.197
1255.093, 4220.676
1256.167, 4410.205
1257.240, 4704.795
1258.314, 4746.430
1259.388, 4816.311
1260.461, 4980.838
1261.535, 4854.604
1262.608, 4793.410
1263.681, 4964.262
1264.753, 4705.150
1265.826, 4943.074
1266.899, 4804.033
1267.971, 4840.027
1269.043, 4991.051
1270.115, 5305.107
1271.187, 5023.193
1272.259, 4705.305
1273.330, 5266.443
1274.402, 5092.604
1275.473, 4928.965
1276.544, 4914.312
1277.615, 5028.672
1278.686, 4845.037
1279.756, 5012.193
1280.827, 5260.285
1281.897, 4823.752
1282.967, 4851.500
1284.037, 4952.727
1285.107, 5280.957
1286.177, 5554.105
1287.247, 6078.154
1288.316, 6475.566
1289.385, 6685.707
1290.454, 7236.965
1291.523, 7439.416
1292.592, 7514.240
1293.661, 7647.688
1294.729, 7566.746
1295.797, 7547.008
1296.866, 8046.936
1297.934, 7385.055
1299.001, 7262.660
1300.069, 7308.379
1301.137, 6742.424
1302.204, 6797.105
1303.271, 6636.525
1304.338, 6376.895
1305.405, 6372.889
1306.472, 6215.928
1307.539, 6275.240
1308.605, 6091.582
1309.671, 6238.035
1310.737, 6373.754
1311.803, 6285.398
1312.869, 6157.049
1313.935, 6200.262
1315.000, 6079.551
1316.066, 6149.773
1317.131, 5979.016
1318.196, 5956.273
1319.261, 6103.547
1320.326, 5987.834
1321.390, 5769.131
1322.455, 5756.445
1323.519, 5377.766
1324.583, 5492.787
1325.647, 5090.129
1326.711, 4760.227
1327.775, 4669.396
1328.838, 4264.762
1329.902, 4401.127
1330.965, 4176.500
1332.028, 4047.471
1333.091, 3814.238
1334.153, 3646.615
1335.216, 3770.844
1336.279, 3626.627
1337.341, 3316.965
1338.403, 3590.758
1339.465, 3330.283
1340.527, 3410.039
1341.588, 3512.389
1342.650, 3138.730
1343.711, 2846.062
1344.772, 2882.385
1345.834, 3103.695
1346.894, 2945.996
1347.955, 3286.287
1349.016, 3291.562
1350.076, 3255.826
1351.136, 3574.076
1352.197, 4178.312
1353.257, 4161.533
1354.316, 5145.740
1355.376, 5818.932
1356.436, 6997.109
1357.495, 8851.268
1358.554, 10437.41
1359.613, 11847.52
1360.672, 12164.73
1361.731, 12001.30
1362.789, 11575.97
1363.848, 9972.160
1364.906, 8273.422
1365.964, 6377.543
1367.022, 5083.777
1368.080, 4314.086
1369.138, 3465.670
1370.195, 3117.969
1371.253, 2837.121
1372.310, 2620.150
1373.367, 2672.016
1374.424, 2945.684
1375.480, 2998.131
1376.537, 3245.750
1377.593, 3595.506
1378.650, 3744.486
1379.706, 3969.324
1380.762, 4273.016
1381.818, 3945.559
1382.873, 3964.947
1383.929, 4223.172
1384.984, 4656.234
1386.039, 4466.117
1387.094, 4664.820
1388.149, 4420.340
1389.204, 4531.662
1390.259, 4592.785
1391.313, 4978.699
1392.367, 5750.396
1393.422, 6651.867
1394.476, 7611.104
1395.529, 7788.086
1396.583, 7582.820
1397.637, 6829.287
1398.690, 4981.469
1399.743, 3842.363
1400.796, 2768.945
1401.849, 1744.217
1402.902, 1281.365
1403.954, 975.0703
1405.007, 341.6387
1406.059, 38.99219
1407.111, 38.47461
1408.163, 121.5918
1409.215, 250.8047
1410.267, 303.7852
1411.318, 397.0352
1412.370, 473.3887
1413.421, 549.7031
1414.472, 697.1621
1415.523, 771.1621
1416.574, 421.2500
1417.624, 386.5234
1418.675, 455.4180
1419.725, 385.0332
1420.775, 330.5059
1421.825, 6.750000
1422.875, 402.8008
1423.925, 708.6465
1424.974, 1302.352
1426.024, 1504.535
1427.073, 1905.559
1428.122, 1734.117
1429.171, 1307.164
1430.220, 1307.949
1431.268, 1070.395
1432.317, 939.3359
1433.365, 826.7461
1434.413, 1008.543
1435.461, 1106.562
1436.509, 1370.148
1437.557, 1370.090
1438.605, 1827.727
1439.652, 2498.328
1440.699, 2698.758
1441.746, 3652.000
1442.793, 3912.133
1443.840, 4384.148
1444.887, 4872.047
1445.933, 5311.828
1446.980, 5449.492
1448.026, 5305.031
1449.072, 5305.438
1450.118, 4999.750
1451.163, 4997.934
1452.209, 4857.996
1453.254, 4385.945
1454.300, 4236.762
1455.345, 4171.418
1456.390, 4317.918
1457.435, 4131.254
1458.479, 4596.418
1459.524, 4524.410
1460.568, 4717.223
1461.612, 5164.844
1462.656, 5078.281
1463.700, 4928.523
1464.744, 5023.578
1465.788, 4947.465
1466.831, 4104.223
1467.874, 4512.891
1468.918, 4165.484
1469.961, 3797.008
1471.003, 3962.469
1472.046, 3737.871
1473.089, 3588.211
1474.131, 3759.512
1475.173, 3692.766
1476.215, 3712.988
1477.257, 3495.168
1478.299, 3867.328
1479.341, 3795.477
1480.382, 3522.625
1481.424, 3875.773
1482.465, 3855.945
1483.506, 3879.148
1484.547, 3872.828
1485.587, 3692.578
1486.628, 3619.328
1487.668, 3405.484
1488.709, 3245.062
1489.749, 2935.473
1490.789, 2661.695
1491.828, 2476.738
1492.868, 2336.617
1493.908, 2030.695
1494.947, 2297.219
1495.986, 1923.438
1497.025, 1957.332
1498.064, 2195.973
1499.103, 1627.609
1500.141, 1847.824
1501.180, 2156.188
1502.218, 2212.980
1503.256, 2261.336
1504.294, 2472.848
1505.332, 2456.453
1506.370, 2266.527
1507.407, 2454.582
1508.445, 2379.371
1509.482, 2232.840
1510.519, 2402.910
1511.556, 2446.516
1512.593, 2179.582
1513.629, 2686.031
1514.666, 2163.777
1515.702, 2315.727
1516.738, 2381.773
1517.774, 1961.805
1518.810, 1639.684
1519.846, 1634.270
1520.882, 1417.406
1521.917, 1401.910
1522.952, 1136.598
1523.987, 1189.242
1525.022, 952.6602
1526.057, 1003.688
1527.092, 690.5586
1528.126, 707.1680
1529.161, 424.6172
1530.195, 641.5156
1531.229, 511.2539
1532.263, 335.5859
1533.297, 81.12891
1534.330, 119.0977
1535.364, 86.11328
1536.397, 331.2422
1537.430, 293.5703
1538.463, 104.2188
1539.496, 421.3555
1540.529, 136.2109
1541.561, 142.9336
1542.594, 238.3203
1543.626, 286.5156
1544.658, 154.3633
1545.690, 327.7617
1546.722, 108.5664
1547.753, 269.6016
1548.785, 230.4180
1549.816, 232.0117
1550.847, 168.7969
1551.878, 183.4102
1552.909, 217.8008
1553.940, 194.2031
1554.971, 156.2070
1556.001, 140.3789
1557.031, 121.2305
1558.062, 106.6289
1559.092, 130.3398
1560.121, 73.23047
1561.151, 79.16016
1562.181, 15.17188
1563.210, 3.218750
1564.239, 0.0000000E+00
##END=



