##NAMES=Gmelinite-Na
##RRUFFID=R050371
##IDEAL CHEMISTRY=Na_4_(Si_8_Al_4_)O_24_&#183;11H_2_O
##LOCALITY=Cairns Bay, Flinders Range, Australia
##OWNER=RRUFF
##SOURCE=Eugene Schlepp
##DESCRIPTION=Colorless to pink crystals lining a basalt vug
##STATUS=The identification of this mineral has been confirmed by X-ray diffraction and chemical analysis
##URL=rruff.info/R050371
##MEASURED CHEMISTRY=Na_3.81_(Si_8.13_Al_3.88_)O_24_Â·4.27H_2_O
##PIN_ID=L01149
##ORIENTATION=Laser parallel to a* (1 0 0). Fiducial mark perpendicular to laser is parallel to c [0 0 1]
244.2110, 0.0000000E+00
245.4290, 189.1729
246.6460, 158.7246
247.8630, 1.851563
249.0810, 171.8252
250.2980, 26.24414
251.5140, 3.786133
252.7310, 60.21094
253.9470, 9.554688
255.1640, 97.78320
256.3800, 148.0703
257.5960, 163.3857
258.8120, 48.93066
260.0270, 99.70703
261.2430, 82.13770
262.4580, 93.00781
263.6730, 199.6152
264.8880, 137.3086
266.1030, 203.6328
267.3170, 234.5576
268.5320, 249.0830
269.7460, 254.1953
270.9600, 178.8623
272.1740, 113.0605
273.3880, 16.76758
274.6010, 62.96289
275.8150, 133.6270
277.0280, 152.7451
278.2410, 46.29980
279.4540, 80.72559
280.6670, 8.654297
281.8790, 96.58398
283.0920, 10.46875
284.3040, 110.0205
285.5160, 40.25977
286.7280, 126.7959
287.9400, 31.13379
289.1510, 162.7383
290.3630, 129.5986
291.5740, 161.7002
292.7850, 210.0342
293.9960, 235.5986
295.2070, 374.3936
296.4170, 279.4189
297.6280, 473.6738
298.8380, 528.1572
300.0480, 544.9922
301.2580, 706.7891
302.4680, 701.9316
303.6770, 792.2881
304.8870, 1043.854
306.0960, 1148.625
307.3050, 1312.595
308.5140, 1466.760
309.7230, 1882.115
310.9310, 2034.656
312.1400, 2427.379
313.3480, 2572.278
314.5560, 2907.352
315.7640, 3187.594
316.9720, 3543.976
318.1790, 3621.412
319.3870, 3748.899
320.5940, 3961.445
321.8010, 3860.060
323.0080, 3891.740
324.2150, 3827.491
325.4210, 3623.317
326.6280, 3493.218
327.8340, 3209.188
329.0400, 2905.229
330.2460, 2681.348
331.4510, 2297.547
332.6570, 2188.829
333.8620, 1870.199
335.0680, 1669.601
336.2730, 1500.031
337.4780, 1449.478
338.6820, 1116.049
339.8870, 1158.721
341.0910, 1016.490
342.2950, 671.3701
343.5000, 1015.383
344.7030, 799.5752
345.9070, 806.9336
347.1110, 800.4297
348.3140, 751.0908
349.5170, 841.8721
350.7200, 803.7891
351.9230, 808.8037
353.1260, 910.9180
354.3290, 950.1230
355.5310, 958.3604
356.7330, 972.5244
357.9350, 976.5088
359.1370, 915.1543
360.3390, 933.9121
361.5400, 877.7793
362.7420, 1086.743
363.9430, 947.7949
365.1440, 1171.924
366.3450, 1120.132
367.5460, 1145.417
368.7460, 1164.774
369.9470, 1213.206
371.1470, 1310.707
372.3470, 1347.281
373.5470, 1376.924
374.7460, 1575.638
375.9460, 1447.419
377.1450, 1668.268
378.3450, 1799.182
379.5440, 1814.162
380.7430, 2065.207
381.9410, 2160.317
383.1400, 2317.488
384.3380, 2340.721
385.5370, 2673.014
386.7350, 2984.367
387.9320, 3256.779
389.1300, 3289.569
390.3280, 3685.358
391.5250, 4131.137
392.7220, 4452.629
393.9190, 5060.627
395.1160, 5594.727
396.3130, 6027.904
397.5100, 6630.186
398.7060, 7545.527
399.9020, 8413.939
401.0980, 9576.432
402.2940, 10164.05
403.4900, 11209.74
404.6860, 12246.52
405.8810, 12839.44
407.0760, 13638.32
408.2710, 14139.14
409.4660, 14108.88
410.6610, 14250.76
411.8550, 13916.78
413.0500, 13161.93
414.2440, 12373.18
415.4380, 11475.55
416.6320, 10534.03
417.8260, 9395.340
419.0190, 8710.016
420.2130, 7917.801
421.4060, 6962.672
422.5990, 6390.627
423.7920, 5747.580
424.9850, 5275.711
426.1770, 4888.412
427.3700, 4611.391
428.5620, 4253.932
429.7540, 4187.117
430.9460, 3978.862
432.1380, 3927.570
433.3290, 3804.242
434.5210, 3810.981
435.7120, 3901.790
436.9030, 3925.662
438.0940, 4104.077
439.2850, 4245.229
440.4750, 4274.699
441.6660, 4562.328
442.8560, 4773.691
444.0460, 4985.001
445.2360, 5312.363
446.4260, 5755.693
447.6160, 6045.130
448.8050, 6603.436
449.9940, 6846.484
451.1830, 7430.805
452.3720, 7989.402
453.5610, 8694.062
454.7500, 9279.354
455.9380, 10091.09
457.1260, 10932.89
458.3150, 11540.83
459.5020, 12761.69
460.6900, 13541.35
461.8780, 14315.30
463.0650, 15025.29
464.2530, 15844.87
465.4400, 16723.19
466.6270, 17328.58
467.8130, 17935.73
469.0000, 18502.93
470.1870, 19310.15
471.3730, 20188.43
472.5590, 21083.74
473.7450, 22104.74
474.9310, 23297.79
476.1160, 24714.46
477.3020, 26254.10
478.4870, 27978.64
479.6720, 29906.98
480.8570, 31825.55
482.0420, 33817.16
483.2270, 35831.89
484.4110, 37994.66
485.5960, 40200.70
486.7800, 41888.48
487.9640, 44338.52
489.1480, 45947.31
490.3310, 47719.14
491.5150, 49385.00
492.6980, 50268.90
493.8810, 50481.83
495.0640, 51163.77
496.2470, 50966.74
497.4300, 50325.74
498.6120, 48772.77
499.7950, 47315.82
500.9770, 45677.90
502.1590, 43423.98
503.3410, 41124.11
504.5220, 38275.25
505.7040, 35022.43
506.8850, 32347.62
508.0660, 29425.82
509.2470, 26594.05
510.4280, 24041.29
511.6090, 21222.56
512.7890, 19040.85
513.9700, 16854.15
515.1500, 15059.47
516.3300, 13285.80
517.5100, 11755.16
518.6900, 10580.53
519.8690, 9497.915
521.0490, 8589.312
522.2280, 7558.729
523.4070, 6783.158
524.5860, 6168.601
525.7640, 5318.057
526.9430, 4827.523
528.1210, 4581.004
529.3000, 3985.497
530.4780, 3681.351
531.6560, 3414.879
532.8330, 3109.068
534.0110, 2873.503
535.1880, 2516.686
536.3650, 2309.018
537.5430, 2088.290
538.7190, 1883.128
539.8960, 1724.312
541.0730, 1593.826
542.2490, 1451.750
543.4250, 1377.737
544.6020, 1248.674
545.7780, 1236.274
546.9530, 1014.463
548.1290, 1061.114
549.3040, 831.0273
550.4800, 881.8281
551.6550, 787.1289
552.8300, 695.9756
554.0040, 616.2432
555.1790, 587.7969
556.3540, 498.1787
557.5280, 467.9893
558.7020, 379.7236
559.8760, 379.4062
561.0500, 349.8184
562.2230, 260.3457
563.3970, 194.5137
564.5700, 135.3584
565.7430, 69.29004
566.9160, 128.9697
568.0890, 227.6797
569.2620, 13.19043
570.4340, 113.2217
571.6070, 77.17383
572.7790, 6.607422
573.9510, 33.37793
575.1230, 28.06445
576.2940, 16.71680
577.4660, 9.362305
578.6370, 24.40430
579.8080, 9.062988
580.9790, 51.78760
582.1500, 53.56104
583.3210, 122.2686
584.4910, 3.222656
585.6620, 82.25830
586.8320, 97.84229
588.0020, 29.33154
589.1720, 75.55420
590.3410, 47.31592
591.5110, 106.4683
592.6800, 15.34180
593.8500, 3.267578
595.0190, 82.86865
596.1880, 36.24854
597.3560, 3.042480
598.5250, 31.07129
599.6930, 117.7061
600.8620, 20.50049
602.0300, 35.28711
603.1970, 55.06787
604.3650, 72.13086
605.5330, 2.343262
606.7000, 97.55273
607.8680, 90.21240
609.0350, 44.97412
610.2020, 118.7217
611.3680, 101.4648
612.5350, 98.20410
613.7010, 8.043457
614.8680, 64.28906
616.0340, 33.41260
617.2000, 16.88818
618.3660, 64.80371
619.5310, 26.52100
620.6970, 104.1309
621.8620, 129.7700
623.0270, 69.40088
624.1920, 72.01025
625.3570, 20.59814
626.5220, 94.16162
627.6860, 46.71436
628.8500, 133.2417
630.0140, 233.7510
631.1780, 130.2354
632.3420, 130.6968
633.5060, 204.1470
634.6700, 290.5884
635.8330, 335.0039
636.9960, 412.3936
638.1590, 441.7554
639.3220, 507.7944
640.4850, 462.3936
641.6470, 604.6782
642.8100, 685.9346
643.9720, 696.1592
645.1340, 666.3618
646.2960, 806.5342
647.4570, 946.6758
648.6190, 787.7852
649.7800, 801.8608
650.9420, 893.9028
652.1030, 905.9106
653.2640, 872.8823
654.4240, 912.8188
655.5850, 863.7197
656.7450, 767.5830
657.9060, 649.4092
659.0660, 628.1968
660.2260, 616.9453
661.3850, 538.6553
662.5450, 498.3247
663.7040, 450.9551
664.8640, 389.1260
666.0230, 372.0918
667.1820, 268.5977
668.3410, 249.0610
669.4990, 167.0562
670.6580, 278.8564
671.8160, 105.1885
672.9740, 77.47168
674.1320, 126.7021
675.2900, 2.882324
676.4480, 84.98438
677.6050, 25.03320
678.7630, 101.0117
679.9200, 42.06445
681.0770, 47.24658
682.2340, 142.5396
683.3900, 12.99414
684.5470, 29.45752
685.7030, 126.1655
686.8590, 4.944336
688.0150, 8.183594
689.1710, 57.23975
690.3270, 29.77051
691.4830, 81.66602
692.6380, 9.491699
693.7930, 73.78906
694.9480, 23.79736
696.1030, 30.17773
697.2580, 136.7070
698.4130, 44.81982
699.5670, 9.892578
700.7210, 194.9033
701.8750, 106.6855
703.0290, 45.41309
704.1830, 133.0708
705.3370, 9.671875
706.4900, 178.2744
707.6430, 60.29541
708.7970, 136.7568
709.9490, 223.3228
711.1020, 227.4697
712.2550, 145.3589
713.4070, 203.7437
714.5600, 218.0552
715.7120, 223.3057
716.8640, 323.6172
718.0160, 299.7495
719.1670, 316.6021
720.3190, 326.0767
721.4700, 308.8452
722.6210, 353.2178
723.7720, 384.8882
724.9230, 257.4902
726.0740, 306.6294
727.2250, 321.5562
728.3750, 284.5938
729.5250, 385.9199
730.6750, 379.6714
731.8250, 357.1616
732.9750, 375.8530
734.1240, 313.9448
735.2740, 491.5635
736.4230, 373.7656
737.5720, 420.4551
738.7210, 397.9746
739.8700, 398.9180
741.0190, 448.1201
742.1670, 463.5845
743.3150, 504.0278
744.4630, 535.2168
745.6110, 567.2031
746.7590, 590.1460
747.9070, 578.9248
749.0540, 741.7393
750.2020, 933.6514
751.3490, 917.4722
752.4960, 942.4326
753.6430, 990.0918
754.7890, 912.8096
755.9360, 1000.982
757.0820, 1062.483
758.2280, 1150.525
759.3740, 1231.001
760.5200, 1165.180
761.6660, 1256.984
762.8120, 1189.618
763.9570, 1111.939
765.1020, 1248.847
766.2470, 1253.092
767.3920, 1106.219
768.5370, 1042.352
769.6810, 1052.708
770.8260, 982.7114
771.9700, 996.0083
773.1140, 1064.362
774.2580, 1029.202
775.4020, 1060.785
776.5460, 1135.204
777.6890, 1077.630
778.8320, 1189.651
779.9750, 1285.070
781.1180, 1341.245
782.2610, 1383.610
783.4040, 1525.903
784.5460, 1550.891
785.6890, 1667.764
786.8310, 1811.171
787.9730, 1931.591
789.1150, 2147.097
790.2560, 2260.147
791.3980, 2419.184
792.5390, 2426.367
793.6810, 2640.111
794.8220, 2735.883
795.9630, 2727.393
797.1030, 2689.844
798.2440, 2751.286
799.3840, 2775.533
800.5240, 2526.814
801.6650, 2443.868
802.8040, 2248.846
803.9440, 2083.749
805.0840, 1957.578
806.2230, 1766.333
807.3630, 1564.661
808.5020, 1471.378
809.6410, 1307.268
810.7790, 1142.866
811.9180, 1051.667
813.0570, 935.4282
814.1950, 817.7920
815.3330, 814.3008
816.4710, 710.6074
817.6090, 697.8105
818.7470, 624.5488
819.8840, 578.9863
821.0220, 541.7856
822.1590, 520.6821
823.2960, 525.9341
824.4330, 501.3633
825.5690, 432.0840
826.7060, 429.5547
827.8420, 370.3579
828.9790, 311.7817
830.1150, 257.6143
831.2510, 305.0996
832.3860, 277.6270
833.5220, 277.8032
834.6570, 207.9258
835.7930, 196.0381
836.9280, 184.3569
838.0630, 223.4961
839.1980, 219.4785
840.3320, 214.2153
841.4670, 211.1787
842.6010, 182.9233
843.7350, 99.58984
844.8690, 56.38818
846.0030, 46.61621
847.1370, 170.2036
848.2700, 70.74902
849.4040, 130.8032
850.5370, 12.08594
851.6700, 40.32422
852.8030, 109.4941
853.9360, 32.00439
855.0680, 87.32715
856.2000, 40.64307
857.3330, 21.92285
858.4650, 49.05176
859.5970, 34.32617
860.7290, 135.6055
861.8600, 8.345215
862.9920, 77.22705
864.1230, 23.09326
865.2540, 4.257324
866.3850, 16.31055
867.5160, 33.43652
868.6460, 6.770996
869.7770, 56.13086
870.9070, 50.14062
872.0370, 20.34326
873.1670, 36.98975
874.2970, 31.65137
875.4270, 1.402832
876.5570, 59.23633
877.6860, 93.16455
878.8150, 99.76904
879.9440, 48.39160
881.0730, 115.6646
882.2020, 17.05078
883.3300, 39.47754
884.4590, 19.05908
885.5870, 22.68115
886.7150, 90.38965
887.8430, 82.26123
888.9710, 28.84180
890.0990, 46.14453
891.2260, 72.22461
892.3530, 2.593262
893.4810, 36.65576
894.6080, 16.98291
895.7340, 30.38672
896.8610, 16.12793
897.9880, 24.58154
899.1140, 22.97559
900.2400, 35.68799
901.3660, 18.56738
902.4920, 11.23486
903.6180, 45.89600
904.7430, 2.971191
905.8690, 48.01270
906.9940, 60.07910
908.1190, 5.765137
909.2440, 17.55322
910.3690, 54.28711
911.4930, 72.96777
912.6180, 50.59668
913.7420, 32.82568
914.8660, 10.68311
915.9900, 48.13867
917.1140, 29.45508
918.2380, 3.113281
919.3610, 30.17578
920.4850, 36.41553
921.6080, 126.6060
922.7310, 102.7510
923.8540, 60.85059
924.9760, 148.9043
926.0990, 130.9146
927.2210, 74.88135
928.3440, 158.8047
929.4660, 130.6860
930.5880, 172.5264
931.7090, 165.3267
932.8310, 146.0879
933.9520, 171.8096
935.0740, 142.4937
936.1950, 239.1387
937.3160, 208.7466
938.4360, 173.3188
939.5570, 239.8555
940.6780, 174.3560
941.7980, 189.3506
942.9180, 129.2544
944.0380, 165.6514
945.1580, 213.0171
946.2780, 182.3535
947.3970, 103.4531
948.5170, 204.2905
949.6360, 270.4585
950.7550, 303.8506
951.8740, 206.3423
952.9930, 277.8267
954.1110, 281.5684
955.2300, 282.5781
956.3480, 377.8501
957.4660, 360.7998
958.5840, 414.0508
959.7020, 400.2944
960.8190, 444.8726
961.9370, 472.7134
963.0540, 540.7036
964.1710, 578.5117
965.2880, 676.1157
966.4050, 701.9199
967.5220, 835.6133
968.6380, 850.3398
969.7550, 971.7563
970.8710, 910.1235
971.9870, 1043.455
973.1030, 1071.935
974.2190, 1226.392
975.3340, 1117.829
976.4500, 1150.252
977.5650, 1280.578
978.6800, 1285.404
979.7950, 1387.711
980.9100, 1547.842
982.0250, 1607.099
983.1390, 1621.665
984.2530, 1696.795
985.3680, 1613.919
986.4820, 1687.025
987.5950, 1748.827
988.7090, 1889.927
989.8230, 1907.729
990.9360, 1922.917
992.0490, 1973.634
993.1620, 1974.995
994.2750, 2014.107
995.3880, 2083.227
996.5010, 2227.549
997.6130, 2252.322
998.7250, 2352.290
999.8370, 2335.956
1000.949, 2378.899
1002.061, 2465.801
1003.173, 2442.413
1004.284, 2551.963
1005.396, 2575.514
1006.507, 2472.389
1007.618, 2560.805
1008.729, 2635.077
1009.839, 2733.304
1010.950, 2684.954
1012.060, 2647.522
1013.171, 2849.725
1014.281, 2796.204
1015.391, 2887.512
1016.500, 2891.064
1017.610, 2809.710
1018.719, 2866.252
1019.829, 2979.625
1020.938, 2921.818
1022.047, 2870.583
1023.156, 2905.387
1024.264, 2859.976
1025.373, 2885.981
1026.481, 2856.315
1027.589, 2856.271
1028.697, 2902.531
1029.805, 2765.021
1030.913, 2762.724
1032.020, 2701.523
1033.128, 2712.334
1034.235, 2682.781
1035.342, 2626.607
1036.449, 2642.738
1037.556, 2575.071
1038.663, 2561.563
1039.769, 2484.616
1040.875, 2374.989
1041.981, 2361.876
1043.087, 2448.893
1044.193, 2515.099
1045.299, 2302.404
1046.404, 2367.636
1047.510, 2286.206
1048.615, 2188.314
1049.720, 2215.602
1050.825, 2196.634
1051.930, 2206.671
1053.034, 2230.669
1054.139, 2219.281
1055.243, 2241.012
1056.347, 2287.668
1057.451, 2210.173
1058.555, 2249.071
1059.658, 2335.920
1060.762, 2408.560
1061.865, 2496.575
1062.968, 2618.500
1064.071, 2786.626
1065.174, 2931.748
1066.277, 2973.816
1067.380, 2998.021
1068.482, 3268.127
1069.584, 3381.402
1070.686, 3605.691
1071.788, 3572.993
1072.890, 3832.312
1073.992, 4033.644
1075.093, 3999.991
1076.194, 4347.241
1077.295, 4422.619
1078.396, 4584.011
1079.497, 4738.419
1080.598, 4835.676
1081.698, 5052.332
1082.799, 5263.787
1083.899, 5176.282
1084.999, 5466.846
1086.099, 5588.457
1087.199, 5826.979
1088.298, 5892.518
1089.398, 5956.504
1090.497, 6145.826
1091.596, 6241.412
1092.695, 6384.016
1093.794, 6555.636
1094.892, 6601.008
1095.991, 6500.258
1097.089, 6830.713
1098.187, 6763.342
1099.285, 7062.052
1100.383, 7010.780
1101.481, 6998.527
1102.579, 7147.295
1103.676, 7137.080
1104.773, 7150.886
1105.870, 7191.335
1106.967, 7140.757
1108.064, 7133.954
1109.161, 7231.133
1110.257, 7075.040
1111.353, 6925.020
1112.449, 6991.140
1113.545, 6937.123
1114.641, 6835.209
1115.737, 6933.425
1116.832, 6793.497
1117.928, 6946.574
1119.023, 6952.677
1120.118, 7019.797
1121.213, 6986.703
1122.308, 6850.345
1123.402, 6802.724
1124.497, 6659.957
1125.591, 6473.767
1126.685, 6269.149
1127.779, 6180.709
1128.873, 6011.881
1129.967, 5964.620
1131.060, 5807.051
1132.153, 5682.469
1133.247, 5685.935
1134.340, 5458.443
1135.433, 5413.980
1136.525, 5346.563
1137.618, 5269.168
1138.710, 5190.881
1139.802, 5029.961
1140.895, 4822.597
1141.987, 4756.188
1143.078, 4697.475
1144.170, 4587.311
1145.261, 4540.206
1146.353, 4259.142
1147.444, 4125.135
1148.535, 3999.157
1149.626, 3998.829
1150.716, 3827.904
1151.807, 3700.229
1152.897, 3594.123
1153.988, 3423.592
1155.078, 3309.818
1156.168, 3175.080
1157.257, 3021.386
1158.347, 2810.715
1159.436, 2793.077
1160.526, 2673.467
1161.615, 2502.890
1162.704, 2519.332
1163.793, 2299.795
1164.881, 2096.279
1165.970, 2063.793
1167.058, 1939.327
1168.147, 1781.884
1169.235, 1766.461
1170.323, 1571.058
1171.410, 1425.690
1172.498, 1365.358
1173.585, 1313.046
1174.673, 1175.761
1175.760, 1101.497
1176.847, 1068.251
1177.934, 1047.029
1179.020, 913.8325
1180.107, 793.6577
1181.193, 872.5156
1182.279, 1475.400
1183.365, 993.0068
1184.451, 1017.774
1185.537, 511.1704
1186.623, 539.1284
1187.708, 549.1021
1188.793, 488.0933
1189.878, 394.1001
1190.963, 356.1226
1192.048, 400.1646
1193.133, 340.2202
1194.217, 321.2896
1195.302, 209.3721
1196.386, 313.4683
1197.470, 115.5771
1198.554, 178.6992
1199.638, 180.8345
1200.721, 141.9824
1201.805, 103.1431
1202.888, 66.31445
1203.971, 68.24902
1205.054, 75.69678
1206.137, 80.90527
1207.219, 46.12451
1208.302, 42.35547
1209.384, 64.59668
1210.466, 22.84912
1211.548, 11.88574
1212.630, 43.38818
1213.712, 0.6728520
1214.794, 4.033203
1215.875, 5.729980
1216.956, 30.58789
1218.037, 3.915039
1219.118, 17.73438
1220.199, 26.37891
1221.280, 49.97803
1222.360, 52.34473
1223.441, 63.72070
1224.521, 67.89502
1225.601, 43.52783
1226.681, 24.16699
1227.760, 69.80615
1228.840, 4.536133
1229.919, 41.88623
1230.999, 43.24512
1232.078, 16.61230
1233.157, 21.23682
1234.236, 4.388672
1235.314, 28.24268
1236.393, 1.189941
1237.471, 51.41748
1238.549, 6.038086
1239.627, 6.346191
1240.705, 43.79395
1241.783, 45.41455
1242.860, 8.584961
1243.938, 95.04004
1245.015, 143.7051
1246.092, 4.567871
1247.169, 23.85596
1248.246, 51.33398
1249.323, 17.36523
1250.399, 91.92822
1251.475, 16.30664
1252.552, 2.704102
1253.628, 65.15967
1254.703, 61.22559
1255.779, 52.39893
1256.855, 129.0894
1257.930, 12.05322
1259.005, 41.80273
1260.080, 10.32080
1261.155, 55.44531
1262.230, 47.31006
1263.305, 42.35645
1264.379, 69.49414
1265.454, 42.83789
1266.528, 43.01904
1267.602, 26.67725
1268.676, 48.90967
1269.750, 39.93604
1270.823, 20.85010
1271.897, 4.332520
1272.970, 63.54199
1274.043, 130.9043
1275.116, 195.0156
1276.189, 35.05566
1277.261, 153.0933
1278.334, 5.141113
1279.406, 200.1655
1280.478, 21.63867
1281.550, 116.3760
1282.622, 142.5718
1283.694, 97.55908
1284.766, 52.54248
1285.837, 144.5396
1286.908, 127.5132
1287.979, 105.4902
1289.050, 122.5757
1290.121, 108.7202
1291.192, 88.77686
1292.262, 119.2153
1293.333, 103.8779
1294.403, 171.8257
1295.473, 166.7456
1296.543, 203.6587
1297.613, 149.6709
1298.682, 212.6763
1299.752, 302.3511
1300.821, 313.2515
1301.890, 272.3711
1302.959, 216.9985
1304.028, 230.9976
1305.096, 221.8335
1306.165, 301.2466
1307.233, 345.0601
1308.301, 351.7510
1309.370, 339.4106
1310.437, 353.1377
1311.505, 363.8032
1312.573, 333.7412
1313.640, 368.6309
1314.708, 345.5322
1315.775, 277.6035
1316.842, 365.7173
1317.908, 313.9985
1318.975, 356.8545
1320.042, 459.9004
1321.108, 415.4111
1322.174, 332.3022
1323.240, 397.3994
1324.306, 308.1548
1325.372, 260.8574
1326.438, 329.8564
1327.503, 341.6904
1328.568, 343.5791
1329.634, 361.2114
1330.699, 295.0361
1331.763, 331.1934
1332.828, 318.9409
1333.893, 256.6128
1334.957, 292.1475
1336.021, 283.8066
1337.085, 291.5459
1338.149, 286.1206
1339.213, 253.1133
1340.277, 277.8081
1341.340, 294.4478
1342.404, 239.9561
1343.467, 169.6343
1344.530, 256.5088
1345.593, 308.0005
1346.655, 259.8672
1347.718, 269.0698
1348.780, 205.8530
1349.843, 218.0107
1350.905, 223.9673
1351.967, 234.3579
1353.028, 266.0039
1354.090, 284.7749
1355.152, 329.6177
1356.213, 511.0415
1357.274, 435.2915
1358.335, 403.8027
1359.396, 384.3750
1360.457, 208.8481
1361.517, 195.1333
1362.578, 155.5522
1363.638, 109.0840
1364.698, 122.4907
1365.758, 153.9980
1366.818, 156.2686
1367.878, 59.87598
1368.937, 187.2905
1369.997, 50.51709
1371.056, 146.4521
1372.115, 129.1748
1373.174, 109.7407
1374.232, 170.3130
1375.291, 71.42383
1376.350, 183.2529
1377.408, 28.32178
1378.466, 29.20166
1379.524, 80.37744
1380.582, 67.12402
1381.640, 54.23682
1382.697, 12.61230
1383.754, 86.43555
1384.812, 191.4126
1385.869, 107.2373
1386.926, 129.6831
1387.983, 137.5742
1389.039, 27.64355
1390.096, 118.1011
1391.152, 153.8052
1392.208, 59.74170
1393.264, 101.7808
1394.320, 73.57471
1395.376, 32.24658
1396.431, 23.41211
1397.487, 14.04004
1398.542, 72.87256
1399.597, 64.88184
1400.652, 7.373535
1401.707, 89.02490
1402.762, 151.4541
1403.816, 126.8721
1404.871, 104.2427
1405.925, 138.9521
1406.979, 66.20410
1408.033, 102.2012
1409.086, 58.38916
1410.140, 128.5488
1411.194, 113.8882
1412.247, 104.0063
1413.300, 110.0806
1414.353, 107.1250
1415.406, 80.09668
1416.458, 65.00000
1417.511, 84.65820
1418.563, 56.69238
1419.616, 133.4805
1420.668, 106.2271
1421.720, 137.3145
1422.772, 141.4155
1423.823, 87.04785
1424.875, 86.64062
1425.926, 23.18506
1426.977, 107.6836
1428.028, 55.14355
1429.079, 0.4355470
1430.130, 11.93945
1431.180, 136.2168
1432.231, 2.448730
1433.281, 149.6260
1434.331, 19.75244
1435.381, 34.07666
1436.431, 36.07227
1437.481, 47.00098
1438.530, 10.70898
1439.580, 80.56592
1440.629, 77.39795
1441.678, 49.20020
1442.727, 45.97021
1443.776, 35.32031
1444.824, 85.50391
1445.873, 8.114258
1446.921, 157.7734
1447.969, 131.4067
1449.017, 47.00928
1450.065, 104.5854
1451.113, 116.1357
1452.160, 54.65674
1453.208, 82.14844
1454.255, 67.61377
1455.302, 94.04004
1456.349, 113.4077
1457.396, 40.75732
1458.443, 95.07715
1459.489, 111.4082
1460.535, 171.7451
1461.582, 178.0703
1462.628, 90.36475
1463.674, 139.6304
1464.719, 49.81934
1465.765, 57.06006
1466.810, 105.6743
1467.856, 158.0635
1468.901, 73.34082
1469.946, 4.360352
1470.991, 146.0542
1472.035, 27.21533
1473.080, 88.25000
1474.124, 106.1372
1475.169, 68.46143
1476.213, 138.7993
1477.257, 133.8228
1478.300, 159.7363
1479.344, 178.6230
1480.388, 63.63135
1481.431, 118.0288
1482.474, 154.9590
1483.517, 46.02295
1484.560, 219.1592
1485.603, 80.03613
1486.645, 122.8550
1487.688, 89.02197
1488.730, 48.15039
1489.772, 77.07959
1490.814, 35.72168
1491.856, 58.47412
1492.898, 52.63379
1493.939, 68.52686
1494.981, 78.03760
1496.022, 27.66309
1497.063, 94.30713
1498.104, 96.34570
1499.145, 32.33398
1500.186, 101.0610
1501.226, 16.91357
1502.266, 102.1436
1503.307, 90.44434
1504.347, 64.70264
1505.387, 123.4912
1506.426, 68.16553
1507.466, 109.4492
1508.505, 106.7549
1509.545, 140.2949
1510.584, 119.2461
1511.623, 66.02832
1512.662, 86.20654
1513.700, 138.9380
1514.739, 161.9902
1515.777, 9.285156
1516.815, 61.05078
1517.854, 3.465332
1518.892, 67.36572
1519.929, 74.11719
1520.967, 135.6309
1522.004, 150.0518
1523.042, 72.60107
1524.079, 150.5928
1525.116, 125.1343
1526.153, 61.21826
1527.190, 139.2593
1528.226, 100.2583
1529.263, 141.9136
1530.299, 142.8008
1531.335, 150.5469
1532.371, 144.2427
1533.407, 92.85498
1534.443, 126.5234
1535.478, 60.89600
1536.514, 56.93457
1537.549, 180.9424
1538.584, 178.0259
1539.619, 238.0898
1540.654, 91.14844
1541.689, 157.9604
1542.723, 85.17480
1543.757, 156.0142
1544.792, 67.06934
1545.826, 2.038086
1546.860, 2.716797
1547.893, 103.0952
1548.927, 67.17871
1549.960, 88.71143
1550.994, 127.6978
1552.027, 126.4736
1553.060, 292.5024
1554.093, 161.5073
1555.126, 236.6240
1556.158, 104.6152
1557.191, 31.34766
1558.223, 144.1440
1559.255, 1.847168
1560.287, 0.3876950
1561.319, 47.16895
1562.350, 0.0000000E+00
##END=



