##NAMES=Hedenbergite
##RRUFFID=R060040
##IDEAL CHEMISTRY=CaFe^2+^Si_2_O_6_
##LOCALITY=Rio Marina, Elba, Italy
##OWNER=RRUFF
##SOURCE=University of Arizona Mineral Museum
##DESCRIPTION=Radial aggregate of green thin bladed crystals
##STATUS=The identification of this mineral has been confirmed by X-ray diffraction and chemical analysis
##URL=rruff.info/R060040
##MEASURED CHEMISTRY=Ca_1.00_(Fe^2+^_0.89_Mg_0.09_Mn_0.02_)_Î£=1_Si_2.00_O_6_
##PIN_ID=M01578
##ORIENTATION=Laser parallel to (-1 0 -1). Fiducial mark perpendicular to laser is parallel to -b [0 -1 0]
262.4900, 0.0000000E+00
263.7050, 2.053711
264.9210, 21.58301
266.1360, 109.1396
267.3520, 91.97168
268.5670, 38.29883
269.7820, 154.3672
270.9960, 36.59082
272.2110, 13.33984
273.4250, 198.1572
274.6400, 1.255859
275.8540, 113.8418
277.0680, 68.23926
278.2810, 240.7451
279.4950, 10.19434
280.7090, 264.4502
281.9220, 304.4023
283.1350, 374.0293
284.3480, 539.3818
285.5610, 441.3730
286.7730, 310.8984
287.9860, 604.9092
289.1980, 498.3555
290.4100, 628.1729
291.6220, 635.3027
292.8340, 715.6914
294.0460, 946.2930
295.2570, 1018.073
296.4690, 1203.000
297.6800, 1119.050
298.8910, 1376.200
300.1020, 1547.488
301.3120, 1632.985
302.5230, 1790.839
303.7330, 2161.848
304.9440, 2315.443
306.1540, 2451.205
307.3630, 2345.831
308.5730, 2519.365
309.7830, 2442.886
310.9920, 2133.468
312.2010, 1886.226
313.4100, 1741.160
314.6190, 1436.062
315.8280, 1188.896
317.0370, 1065.729
318.2450, 1055.442
319.4530, 894.0508
320.6610, 883.5498
321.8690, 739.9453
323.0770, 831.2412
324.2850, 679.4424
325.4920, 726.5527
326.6990, 727.5762
327.9060, 836.5146
329.1130, 853.3750
330.3200, 880.1592
331.5270, 1025.868
332.7330, 1112.506
333.9390, 1073.074
335.1450, 1304.578
336.3510, 1485.002
337.5570, 1512.360
338.7630, 1493.082
339.9680, 1530.683
341.1740, 1737.831
342.3790, 1458.038
343.5840, 1533.347
344.7890, 1396.512
345.9930, 1267.793
347.1980, 1229.301
348.4020, 1074.889
349.6060, 1009.117
350.8100, 1041.357
352.0140, 1019.624
353.2180, 984.7002
354.4210, 1079.182
355.6250, 1189.715
356.8280, 1251.366
358.0310, 1348.207
359.2340, 1636.589
360.4360, 1814.022
361.6390, 2021.624
362.8410, 2389.456
364.0430, 2721.926
365.2450, 3130.106
366.4470, 3654.528
367.6490, 4322.323
368.8510, 5011.468
370.0520, 5659.967
371.2530, 6630.379
372.4540, 7292.356
373.6550, 7931.359
374.8560, 8831.649
376.0560, 8840.794
377.2570, 8601.735
378.4570, 7934.656
379.6570, 7017.564
380.8570, 6005.461
382.0570, 5046.340
383.2560, 4101.205
384.4560, 3281.053
385.6550, 2791.886
386.8540, 2179.699
388.0530, 1861.494
389.2520, 1487.271
390.4510, 1376.029
391.6490, 1089.769
392.8470, 900.4912
394.0450, 797.1953
395.2430, 611.8818
396.4410, 439.5527
397.6390, 417.2061
398.8360, 388.8428
400.0340, 347.4648
401.2310, 274.0693
402.4280, 346.6582
403.6250, 205.2324
404.8210, 245.7900
406.0180, 72.33301
407.2140, 238.3086
408.4100, 60.95703
409.6060, 159.6357
410.8020, 186.4902
411.9980, 20.51270
413.1930, 5.589844
414.3890, 82.78711
415.5840, 139.0664
416.7790, 31.58398
417.9740, 92.81250
419.1680, 164.2490
420.3630, 135.2598
421.5570, 246.2295
422.7510, 6.165039
423.9450, 115.6221
425.1390, 102.0908
426.3330, 148.3887
427.5270, 86.10547
428.7200, 68.61328
429.9130, 76.87109
431.1060, 62.37305
432.2990, 82.10938
433.4920, 2.327148
434.6840, 77.30566
435.8770, 59.78516
437.0690, 130.2295
438.2610, 59.70117
439.4530, 81.42969
440.6450, 72.46289
441.8360, 92.92090
443.0280, 114.3672
444.2190, 7.150391
445.4100, 15.79004
446.6010, 102.2021
447.7920, 78.94336
448.9820, 18.44238
450.1730, 79.30762
451.3630, 50.95898
452.5530, 7.407227
453.7430, 69.94141
454.9330, 23.77930
456.1230, 59.41895
457.3120, 34.78906
458.5010, 46.85547
459.6910, 68.71484
460.8800, 48.61621
462.0680, 15.28418
463.2570, 176.3037
464.4460, 27.92383
465.6340, 113.4795
466.8220, 198.1240
468.0100, 219.8252
469.1980, 9.855469
470.3860, 99.25879
471.5730, 68.79199
472.7600, 32.96191
473.9480, 164.3389
475.1350, 12.37305
476.3210, 118.4736
477.5080, 125.1729
478.6950, 114.4941
479.8810, 168.4258
481.0670, 345.1465
482.2530, 156.8467
483.4390, 301.5117
484.6250, 104.1592
485.8100, 288.7207
486.9960, 130.1992
488.1810, 391.5361
489.3660, 387.8574
490.5510, 383.0918
491.7360, 362.3066
492.9200, 420.5117
494.1050, 420.7031
495.2890, 526.8809
496.4730, 442.0547
497.6570, 442.2031
498.8400, 508.3369
500.0240, 469.4385
501.2070, 384.5078
502.3910, 234.5596
503.5740, 414.5703
504.7570, 372.5264
505.9400, 309.4492
507.1220, 480.3350
508.3050, 527.2061
509.4870, 486.0547
510.6690, 566.8857
511.8510, 715.6982
513.0330, 836.4961
514.2140, 632.2783
515.3960, 877.0723
516.5770, 827.8545
517.7580, 1028.622
518.9390, 1064.382
520.1200, 1151.130
521.3010, 1232.863
522.4810, 1363.584
523.6610, 1162.292
524.8420, 1025.988
526.0220, 1027.673
527.2010, 810.3438
528.3810, 742.0303
529.5610, 598.7461
530.7400, 469.4502
531.9190, 451.1396
533.0980, 461.8174
534.2770, 323.5137
535.4560, 487.1982
536.6340, 355.8701
537.8120, 474.5293
538.9910, 383.1758
540.1690, 375.8184
541.3460, 397.4492
542.5240, 526.0693
543.7020, 493.6875
544.8790, 510.2939
546.0560, 410.9062
547.2330, 697.5049
548.4100, 963.1025
549.5870, 750.7061
550.7630, 969.3027
551.9400, 944.8857
553.1160, 636.4551
554.2920, 831.4482
555.4680, 667.7549
556.6440, 642.2822
557.8190, 490.7930
558.9950, 562.9346
560.1700, 511.4141
561.3450, 425.8750
562.5200, 473.3730
563.6950, 169.7998
564.8690, 254.3145
566.0440, 233.9102
567.2180, 134.3047
568.3920, 282.7422
569.5660, 288.0938
570.7400, 183.3877
571.9130, 170.1660
573.0870, 169.8057
574.2600, 143.1592
575.4330, 125.4678
576.6060, 228.6777
577.7790, 2.209961
578.9520, 177.9795
580.1240, 101.0547
581.2960, 46.16016
582.4690, 163.1982
583.6410, 176.2979
584.8120, 55.60938
585.9840, 101.4014
587.1560, 182.0166
588.3270, 81.89355
589.4980, 107.6445
590.6690, 76.66016
591.8400, 95.35840
593.0110, 94.91113
594.1810, 154.8252
595.3510, 5.596680
596.5220, 74.76367
597.6920, 50.34668
598.8610, 60.08105
600.0310, 10.41992
601.2010, 25.01660
602.3700, 278.2490
603.5390, 15.08887
604.7080, 17.47852
605.8770, 111.3135
607.0460, 53.28027
608.2140, 152.1846
609.3830, 49.63086
610.5510, 117.3398
611.7190, 53.53418
612.8870, 151.5752
614.0550, 358.1123
615.2220, 134.5078
616.3900, 13.34766
617.5570, 178.7910
618.7240, 73.93457
619.8910, 105.0098
621.0580, 290.2568
622.2240, 155.4863
623.3910, 195.8203
624.5570, 166.0176
625.7230, 344.2158
626.8890, 287.3818
628.0550, 415.3779
629.2200, 193.5146
630.3860, 375.6348
631.5510, 269.9893
632.7160, 456.6035
633.8810, 330.6797
635.0460, 470.7412
636.2100, 494.6592
637.3750, 475.7393
638.5390, 437.7568
639.7030, 622.7598
640.8670, 691.7480
642.0310, 723.7227
643.1950, 820.8066
644.3580, 986.8994
645.5210, 1071.834
646.6850, 1250.751
647.8480, 1639.656
649.0100, 1802.547
650.1730, 2276.424
651.3350, 2493.535
652.4980, 3329.199
653.6600, 4358.033
654.8220, 4224.904
655.9840, 5117.934
657.1450, 5705.727
658.3070, 6468.662
659.4680, 7144.664
660.6300, 7482.420
661.7910, 7355.182
662.9510, 6713.930
664.1120, 5981.170
665.2730, 5190.219
666.4330, 4336.949
667.5930, 3516.240
668.7530, 3156.748
669.9130, 2600.520
671.0730, 2066.197
672.2320, 1718.004
673.3920, 1469.986
674.5510, 1419.006
675.7100, 1231.627
676.8690, 1006.234
678.0280, 895.0312
679.1860, 836.4727
680.3450, 805.2988
681.5030, 868.1895
682.6610, 654.6582
683.8190, 586.1738
684.9770, 645.7070
686.1340, 538.4590
687.2920, 404.2969
688.4490, 469.4297
689.6060, 524.1895
690.7630, 439.7012
691.9200, 401.1074
693.0760, 401.6719
694.2330, 242.1035
695.3890, 317.7969
696.5450, 457.3809
697.7010, 263.7734
698.8570, 325.4121
700.0130, 560.7266
701.1680, 220.3125
702.3230, 388.6328
703.4780, 189.9883
704.6330, 323.2832
705.7880, 328.5957
706.9430, 308.8730
708.0970, 203.3242
709.2520, 350.6621
710.4060, 470.1113
711.5600, 469.4434
712.7140, 152.7793
713.8670, 197.0195
715.0210, 368.1777
716.1740, 204.4727
717.3270, 447.7832
718.4800, 159.0488
719.6330, 223.0391
720.7860, 171.7031
721.9380, 222.9199
723.0910, 235.1270
724.2430, 172.9727
725.3950, 124.9414
726.5470, 284.1133
727.6980, 206.9238
728.8500, 67.17383
730.0010, 175.5352
731.1530, 160.3105
732.3040, 95.07031
733.4550, 105.0801
734.6050, 216.5684
735.7560, 121.2207
736.9060, 222.6855
738.0560, 313.2617
739.2060, 129.0215
740.3560, 136.8438
741.5060, 231.8613
742.6560, 201.3594
743.8050, 109.4863
744.9540, 315.3242
746.1030, 210.4980
747.2520, 171.4824
748.4010, 259.0098
749.5500, 164.8379
750.6980, 202.3906
751.8460, 204.3418
752.9950, 123.2871
754.1420, 256.1543
755.2900, 336.8906
756.4380, 303.8164
757.5850, 382.4238
758.7330, 246.1504
759.8800, 305.0449
761.0270, 93.92773
762.1730, 301.8008
763.3200, 62.66406
764.4670, 265.5137
765.6130, 260.3535
766.7590, 245.1855
767.9050, 207.0078
769.0510, 65.81641
770.1960, 18.61328
771.3420, 283.3984
772.4870, 263.1699
773.6320, 12.06641
774.7770, 111.6680
775.9220, 189.3926
777.0670, 190.1094
778.2110, 208.8145
779.3560, 231.5117
780.5000, 91.19727
781.6440, 84.87500
782.7880, 521.5391
783.9320, 210.1953
785.0750, 197.8398
786.2180, 242.4785
787.3620, 139.1074
788.5050, 57.72461
789.6480, 44.66602
790.7900, 127.8965
791.9330, 80.54688
793.0750, 61.94727
794.2170, 165.4297
795.3590, 3.029297
796.5010, 57.99414
797.6430, 113.4375
798.7850, 140.6465
799.9260, 220.0703
801.0670, 14.48828
802.2080, 36.89258
803.3490, 108.2871
804.4900, 88.33008
805.6310, 140.0098
806.7710, 87.91797
807.9110, 174.8789
809.0510, 82.16602
810.1910, 97.63281
811.3310, 26.49414
812.4710, 191.6855
813.6100, 219.7930
814.7490, 64.89062
815.8880, 11.01758
817.0270, 49.04492
818.1660, 29.09961
819.3050, 28.85938
820.4430, 144.1484
821.5820, 46.84766
822.7200, 44.11133
823.8580, 20.94141
824.9950, 58.02344
826.1330, 28.84961
827.2710, 82.71094
828.4080, 162.5625
829.5450, 60.41016
830.6820, 89.24805
831.8190, 23.07617
832.9560, 43.89844
834.0920, 84.70898
835.2280, 24.51562
836.3650, 148.3105
837.5010, 27.09961
838.6360, 146.8809
839.7720, 37.34570
840.9080, 205.3945
842.0430, 249.1289
843.1780, 59.85742
844.3130, 67.57617
845.4480, 145.2891
846.5830, 57.99414
847.7170, 442.6934
848.8520, 206.3867
849.9860, 244.9980
851.1200, 349.6797
852.2540, 311.3555
853.3870, 510.0234
854.5210, 299.6953
855.6540, 368.3262
856.7880, 364.9863
857.9210, 187.6445
859.0540, 338.2969
860.1860, 374.9453
861.3190, 226.6094
862.4510, 162.1836
863.5840, 80.87500
864.7160, 150.5586
865.8480, 121.3672
866.9790, 492.0469
868.1110, 366.7207
869.2420, 209.1582
870.3740, 186.6504
871.5050, 283.3379
872.6360, 303.9062
873.7660, 255.5879
874.8970, 342.2676
876.0280, 330.8750
877.1580, 454.5352
878.2880, 268.2227
879.4180, 250.9160
880.5480, 208.4824
881.6770, 340.1738
882.8070, 231.8887
883.9360, 315.5977
885.0650, 247.3145
886.1940, 343.0254
887.3230, 160.7383
888.4520, 377.4473
889.5800, 257.1133
890.7090, 389.8145
891.8370, 225.5234
892.9650, 448.2285
894.0930, 404.9297
895.2200, 116.6289
896.3480, 271.3262
897.4750, 316.8730
898.6020, 95.58203
899.7290, 258.0137
900.8560, 259.7148
901.9830, 611.4355
903.1090, 174.1504
904.2360, 292.8652
905.3620, 276.3281
906.4880, 394.5156
907.6140, 364.2285
908.7400, 466.9355
909.8650, 452.7695
910.9900, 259.4238
912.1160, 294.1289
913.2410, 204.8301
914.3660, 280.5312
915.4900, 467.2305
916.6150, 290.8008
917.7390, 96.34766
918.8640, 186.0391
919.9880, 215.7285
921.1120, 148.4160
922.2350, 335.1035
923.3590, 360.7852
924.4820, 182.2207
925.6060, 313.0879
926.7290, 250.7656
927.8520, 141.3965
928.9740, 49.86914
930.0970, 1.562500
931.2190, 17.86719
932.3420, 119.6172
933.4640, 90.65820
934.5860, 30.04102
935.7080, 37.74219
936.8290, 36.93359
937.9510, 177.3027
939.0720, 203.9766
940.1930, 82.07617
941.3140, 27.05078
942.4350, 114.4590
943.5560, 5.810547
944.6760, 195.6934
945.7960, 70.00586
946.9170, 38.83984
948.0370, 129.8711
949.1560, 228.3965
950.2760, 260.3438
951.3960, 25.37305
952.5150, 134.5078
953.6340, 106.3047
954.7530, 69.86719
955.8720, 227.4805
956.9910, 224.8281
958.1090, 196.2734
959.2280, 178.6152
960.3460, 185.6523
961.4640, 108.0508
962.5820, 335.6816
963.6990, 206.4062
964.8170, 236.9590
965.9340, 417.6387
967.0510, 234.0469
968.1690, 374.5508
969.2850, 409.2305
970.4020, 193.6660
971.5190, 109.4121
972.6350, 253.9023
973.7510, 263.6816
974.8670, 351.3281
975.9830, 303.1172
977.0990, 350.9082
978.2150, 605.5703
979.3300, 408.2715
980.4450, 455.0723
981.5600, 509.7520
982.6750, 611.5586
983.7900, 672.3691
984.9050, 686.1855
986.0190, 732.0059
987.1340, 797.8301
988.2480, 953.6582
989.3620, 1095.492
990.4750, 1075.328
991.5890, 1298.170
992.7020, 1342.014
993.8160, 1561.865
994.9290, 1740.719
996.0420, 1907.684
997.1550, 2179.547
998.2670, 2672.410
999.3800, 3064.277
1000.492, 3717.176
1001.604, 4161.076
1002.716, 5452.980
1003.828, 6725.756
1004.940, 8177.709
1006.051, 10407.67
1007.163, 12592.62
1008.274, 15467.59
1009.385, 18957.56
1010.496, 22095.58
1011.606, 24605.55
1012.717, 25241.53
1013.827, 23757.55
1014.937, 20614.54
1016.047, 16904.02
1017.157, 13394.01
1018.267, 10577.47
1019.377, 8729.473
1020.486, 7116.473
1021.595, 5788.971
1022.704, 5102.979
1023.813, 4785.988
1024.922, 4246.002
1026.030, 3789.020
1027.139, 3715.039
1028.247, 3376.062
1029.355, 3168.088
1030.463, 3081.117
1031.571, 3059.510
1032.678, 2849.547
1033.786, 2233.584
1034.893, 2089.377
1036.000, 2097.420
1037.107, 1949.477
1038.214, 1927.535
1039.321, 1516.691
1040.427, 1268.760
1041.533, 1149.854
1042.639, 1186.953
1043.745, 959.0645
1044.851, 1137.084
1045.957, 808.2012
1047.062, 864.3184
1048.168, 915.4395
1049.273, 844.5605
1050.378, 737.6875
1051.482, 486.8164
1052.587, 381.9473
1053.692, 657.0781
1054.796, 237.2168
1055.900, 606.3555
1057.004, 260.4961
1058.108, 472.6426
1059.212, 372.8047
1060.315, 637.9688
1061.418, 593.2910
1062.522, 272.4863
1063.625, 428.3828
1064.728, 271.0195
1065.830, 306.0234
1066.933, 414.3359
1068.035, 50.54883
1069.137, 213.7637
1070.239, 277.9824
1071.341, 460.2031
1072.443, 214.4258
1073.545, 370.1738
1074.646, 371.7695
1075.747, 353.3242
1076.848, 296.5449
1077.949, 248.8594
1079.050, 252.2070
1080.150, 380.0059
1081.251, 303.3574
1082.351, 281.7129
1083.451, 285.0684
1084.551, 350.4316
1085.651, 431.8008
1086.750, 316.1699
1087.850, 265.5566
1088.949, 269.4160
1090.048, 411.8223
1091.147, 136.2305
1092.246, 216.6523
1093.345, 329.0938
1094.443, 188.5371
1095.541, 134.9824
1096.639, 178.4277
1097.737, 219.8770
1098.835, 167.3242
1099.933, 217.7734
1101.030, 325.2246
1102.128, 237.6777
1103.225, 93.13086
1104.322, 280.9297
1105.419, 24.38477
1106.515, 186.8398
1107.612, 323.3105
1108.708, 151.7793
1109.804, 273.2480
1110.900, 270.7188
1111.996, 299.1895
1113.092, 16.66016
1114.187, 131.1309
1115.283, 325.5996
1116.378, 233.0684
1117.473, 324.5938
1118.568, 281.3105
1119.662, 354.7773
1120.757, 223.3711
1121.851, 348.8398
1122.946, 307.3066
1124.040, 122.7734
1125.134, 59.24023
1126.227, 169.7051
1127.321, 1.830078
1128.414, 230.6367
1129.508, 38.10156
1130.601, 135.5684
1131.693, 78.03320
1132.786, 135.4961
1133.879, 10.95898
1134.971, 59.56836
1136.064, 162.9980
1137.156, 174.4219
1138.248, 106.8477
1139.339, 242.2676
1140.431, 406.6875
1141.522, 7.105469
1142.614, 144.5234
1143.705, 46.93555
1144.796, 9.347656
1145.887, 201.7598
1146.977, 19.83203
1148.068, 109.5605
1149.158, 19.04883
1150.248, 215.3262
1151.338, 75.69922
1152.428, 1.931641
1153.518, 90.43164
1154.607, 59.79297
1155.696, 31.15234
1156.785, 227.5098
1157.874, 24.86523
1158.963, 93.21875
1160.052, 170.5703
1161.141, 157.9219
1162.229, 62.73047
1163.317, 234.5781
1164.405, 102.8828
1165.493, 68.40234
1166.581, 98.20703
1167.668, 196.4883
1168.756, 226.5332
1169.843, 8.710938
1170.930, 98.56055
1172.017, 74.62305
1173.103, 39.33008
1174.190, 194.7930
1175.276, 1.916016
1176.363, 150.5039
1177.449, 163.5391
1178.535, 272.3438
1179.620, 185.5547
1180.706, 80.76367
1181.791, 104.9707
1182.877, 150.1738
1183.962, 49.37500
1185.047, 81.57227
1186.131, 153.7695
1187.216, 267.9629
1188.300, 239.1523
1189.385, 104.3398
1190.469, 91.52344
1191.553, 51.29688
1192.637, 392.8457
1193.720, 109.0137
1194.804, 112.0566
1195.887, 2.128906
1196.970, 62.81250
1198.053, 374.2207
1199.136, 167.2559
1200.219, 149.2832
1201.301, 201.3086
1202.383, 196.3320
1203.465, 8.648438
1204.547, 166.3555
1205.629, 436.3574
1206.711, 149.3809
1207.792, 154.2324
1208.874, 157.2520
1209.955, 134.7363
1211.036, 243.2012
1212.117, 290.1309
1213.198, 120.0605
1214.278, 285.9844
1215.359, 44.90234
1216.439, 177.8223
1217.519, 140.7344
1218.599, 37.89844
1219.678, 202.9746
1220.758, 305.8477
1221.837, 301.7148
1222.917, 91.58008
1223.996, 305.4395
1225.075, 188.2949
1226.153, 431.1465
1227.232, 125.9941
1228.310, 324.8398
1229.389, 86.67773
1230.467, 195.5156
1231.545, 88.34766
1232.622, 197.1777
1233.700, 83.99805
1234.777, 182.7695
1235.855, 165.5332
1236.932, 262.2930
1238.009, 246.0469
1239.086, 142.7988
1240.162, 98.54492
1241.239, 319.2871
1242.315, 224.0273
1243.391, 345.7656
1244.467, 160.4980
1245.543, 123.2285
1246.619, 29.95312
1247.694, 15.67383
1248.769, 123.3887
1249.844, 20.10156
1250.919, 326.8066
1251.994, 105.5117
1253.069, 118.2090
1254.144, 114.9043
1255.218, 447.5977
1256.292, 227.2891
1257.366, 161.8418
1258.440, 228.5254
1259.514, 205.2051
1260.587, 118.8809
1261.661, 110.5547
1262.734, 61.22461
1263.807, 128.1074
1264.880, 15.65039
1265.952, 341.2324
1267.025, 98.81055
1268.097, 173.3906
1269.170, 212.9629
1270.242, 280.5371
1271.314, 188.0625
1272.385, 132.6328
1273.457, 199.1992
1274.528, 134.7227
1275.600, 357.2852
1276.671, 93.35547
1277.742, 196.9141
1278.812, 117.0000
1279.883, 235.5566
1280.954, 163.1094
1282.024, 103.2090
1283.094, 212.8008
1284.164, 37.38867
1285.234, 93.97852
1286.303, 122.5645
1287.373, 389.1504
1288.442, 152.7344
1289.511, 120.3184
1290.580, 357.9023
1291.649, 83.12109
1292.718, 233.7031
1293.786, 228.2832
1294.855, 289.1152
1295.923, 26.30469
1296.991, 304.2578
1298.059, 239.8203
1299.126, 118.2852
1300.194, 94.14844
1301.261, 1.638672
1302.328, 63.86914
1303.395, 83.37891
1304.462, 146.9824
1305.529, 168.4902
1306.596, 77.00000
1307.662, 509.5078
1308.728, 230.0195
1309.794, 27.52734
1310.860, 49.03711
1311.926, 249.5488
1312.991, 50.06055
1314.057, 199.5742
1315.122, 216.0879
1316.187, 403.6016
1317.252, 317.1152
1318.317, 242.6328
1319.381, 246.1465
1320.446, 299.5430
1321.510, 278.0664
1322.574, 82.83008
1323.638, 339.3574
1324.702, 345.0938
1325.766, 247.7441
1326.829, 93.27148
1327.892, 101.8008
1328.956, 242.3281
1330.019, 211.8555
1331.081, 310.3730
1332.144, 235.3945
1333.206, 384.9121
1334.269, 417.4297
1335.331, 57.05078
1336.393, 250.4531
1337.455, 260.9590
1338.516, 265.9434
1339.578, 222.4531
1340.639, 134.9629
1341.701, 233.4766
1342.762, 97.99023
1343.822, 249.5059
1344.883, 311.0273
1345.944, 18.45312
1347.004, 530.5977
1348.064, 286.1230
1349.124, 116.6504
1350.184, 259.1797
1351.244, 286.7129
1352.304, 398.2500
1353.363, 199.7891
1354.422, 307.3320
1355.481, 186.8730
1356.540, 225.4160
1357.599, 400.9629
1358.657, 62.51367
1359.716, 220.0703
1360.774, 349.6289
1361.832, 376.8457
1362.890, 247.4160
1363.948, 212.9902
1365.006, 247.5703
1366.063, 271.1523
1367.120, 260.7441
1368.178, 201.3379
1369.234, 410.9375
1370.291, 188.5430
1371.348, 111.1523
1372.404, 119.7656
1373.461, 447.3887
1374.517, 339.9570
1375.573, 149.3418
1376.629, 224.9805
1377.684, 202.4961
1378.740, 485.1484
1379.795, 117.8047
1380.850, 243.4668
1381.905, 164.1367
1382.960, 214.8145
1384.015, 37.50000
1385.070, 3.187500
1386.124, 221.8828
1387.178, 226.5840
1388.232, 319.2910
1389.286, 227.0078
1390.340, 52.73438
1391.393, 170.4551
1392.447, 76.07422
1393.500, 336.8418
1394.553, 183.6191
1395.606, 120.4043
1396.659, 282.1992
1397.711, 134.0059
1398.764, 282.3125
1399.816, 177.1387
1400.868, 344.9766
1401.920, 73.82422
1402.972, 278.6836
1404.023, 347.5625
1405.075, 339.4531
1406.126, 183.3613
1407.177, 92.28516
1408.228, 82.97461
1409.279, 103.9238
1410.330, 217.8867
1411.380, 166.8652
1412.431, 141.8574
1413.481, 272.8652
1414.531, 292.8848
1415.580, 35.91992
1416.630, 47.97070
1417.680, 77.03906
1418.729, 179.1406
1419.778, 152.2598
1420.827, 411.3965
1421.876, 308.5723
1422.925, 222.8926
1423.973, 130.1074
1425.022, 284.3438
1426.070, 314.5918
1427.118, 246.7969
1428.166, 185.7285
1429.214, 214.0430
1430.261, 260.1426
1431.309, 111.2559
1432.356, 34.38477
1433.403, 196.5215
1434.450, 165.6719
1435.497, 420.8281
1436.543, 300.3789
1437.590, 230.5527
1438.636, 168.7305
1439.682, 143.9082
1440.728, 201.0859
1441.774, 253.2793
1442.819, 98.49023
1443.865, 490.7227
1444.910, 263.9473
1445.955, 244.2383
1447.000, 384.5293
1448.045, 137.8477
1449.090, 332.0234
1450.134, 452.0117
1451.178, 399.1270
1452.223, 365.1367
1453.267, 107.1562
1454.310, 213.1836
1455.354, 137.2344
1456.398, 335.3398
1457.441, 264.3828
1458.484, 14.52539
1459.527, 9.675781
1460.570, 210.8379
1461.613, 491.5117
1462.655, 306.7246
1463.698, 302.9531
1464.740, 163.1914
1465.782, 5.443359
1466.824, 256.7070
1467.866, 83.98633
1468.907, 299.2793
1469.948, 202.6484
1470.990, 198.0352
1472.031, 241.4395
1473.072, 146.8555
1474.112, 182.2871
1475.153, 206.7344
1476.194, 228.2051
1477.234, 402.6934
1478.274, 350.1992
1479.314, 290.7227
1480.354, 307.9883
1481.393, 233.5332
1482.433, 279.0977
1483.472, 242.6758
1484.511, 90.38281
1485.550, 247.1113
1486.589, 186.8594
1487.628, 216.6230
1488.666, 349.4062
1489.704, 228.2109
1490.743, 315.0332
1491.781, 328.8809
1492.819, 304.6211
1493.856, 300.3789
1494.894, 334.1582
1495.931, 569.9531
1496.968, 345.7637
1498.005, 261.5918
1499.042, 181.4355
1500.079, 78.32617
1501.115, 324.2285
1502.152, 304.2383
1503.188, 359.2734
1504.224, 54.33008
1505.260, 158.4082
1506.296, 359.5078
1507.331, 361.6309
1508.367, 284.7734
1509.402, 501.9434
1510.437, 259.1367
1511.472, 429.3398
1512.507, 389.5605
1513.541, 222.8086
1514.576, 126.0996
1515.610, 162.4316
1516.644, 398.8652
1517.678, 245.3398
1518.712, 212.8633
1519.746, 384.4395
1520.779, 202.0625
1521.813, 237.7324
1522.846, 11.54688
1523.879, 282.2207
1524.912, 80.04102
1525.944, 303.9141
1526.977, 569.8379
1528.009, 166.8340
1529.041, 357.9023
1530.073, 231.0312
1531.105, 78.21875
1532.137, 156.5312
1533.168, 119.7832
1534.200, 491.1641
1535.231, 260.6191
1536.262, 422.1523
1537.293, 407.7676
1538.324, 199.4688
1539.354, 618.2578
1540.385, 308.1348
1541.415, 183.1094
1542.445, 244.1855
1543.475, 161.3691
1544.505, 276.6738
1545.534, 362.1016
1546.564, 271.6582
1547.593, 272.3496
1548.622, 236.1816
1549.651, 338.7578
1550.680, 327.7969
1551.708, 503.9941
1552.737, 402.3594
1553.765, 521.0410
1554.793, 195.8613
1555.821, 476.5723
1556.849, 155.1367
1557.877, 374.5020
1558.904, 218.6016
1559.932, 16.35156
1560.959, 566.6289
1561.986, 239.2773
1563.013, 189.3164
1564.039, 257.2617
1565.066, 268.9102
1566.092, 333.6270
1567.119, 256.5215
1568.145, 179.7773
1569.170, 5.146484
1570.196, 209.1406
1571.222, 423.6387
1572.247, 213.8496
1573.272, 0.1464840
1574.297, 0.0000000E+00
##END=



