##NAMES=Heulandite-Ca
##RRUFFID=R040021
##IDEAL CHEMISTRY=(Ca,Na,K)_5_(Si_27_Al_9_)O_72_&#183;26H_2_O
##LOCALITY=Prospect Park, Patterson, Passaic County, New Jersey, USA
##OWNER=RRUFF
##SOURCE=University of Arizona Mineral Museum
##DESCRIPTION=Group of colorless lamellar crystals
##STATUS=The identification of this mineral has been confirmed by X-ray diffraction and chemical analysis
##URL=rruff.info/R040021
##MEASURED CHEMISTRY=Na_0.25_(Na_0.55_K_0.45_)_Σ=1_(Ca_2.42_Na_0.85_Sr_0.73_)_Σ=4.00_(Si_27.60_Al_8.40_)_Σ=36_O_72_·24H_2_O ; H_2_O estimated by difference
##PIN_ID=m00378
##ORIENTATION=Laser parallel to a [1 0 0]. Fiducial mark perpendicular to laser is parallel to b* (0 1 0)
100.340, 0.000
101.732, 33.664
103.124, 315.371
104.516, 470.266
105.908, 979.719
107.300, 1558.824
108.691, 1893.469
110.082, 2496.004
111.473, 2602.270
112.864, 2856.000
114.254, 3670.852
115.644, 4423.273
117.034, 5034.941
118.424, 5192.484
119.813, 4971.855
121.203, 5698.223
122.592, 5629.242
123.981, 5602.500
125.369, 5951.211
126.758, 6063.344
128.146, 6483.684
129.534, 6227.414
130.922, 7249.512
132.309, 7035.598
133.696, 7689.041
135.083, 7737.891
136.470, 8773.311
137.857, 8703.047
139.243, 9803.480
140.630, 9784.477
142.016, 10142.148
143.401, 10146.492
144.787, 10564.107
146.172, 10791.643
147.557, 10901.191
148.942, 10617.311
150.327, 10356.123
151.711, 10580.953
153.096, 10226.014
154.480, 10318.441
155.863, 9635.148
157.247, 9608.721
158.630, 9232.434
160.013, 8903.348
161.396, 8547.344
162.779, 8386.551
164.161, 7801.154
165.544, 7495.109
166.926, 7238.215
168.308, 6558.477
169.689, 6128.801
171.070, 5399.664
172.452, 5128.256
173.833, 4678.760
175.213, 4385.639
176.594, 4011.666
177.974, 3548.422
179.354, 3242.953
180.734, 2902.051
182.114, 2417.105
183.493, 2271.639
184.872, 2151.941
186.251, 1915.752
187.630, 1935.289
189.008, 1575.613
190.387, 1644.408
191.765, 1478.592
193.143, 1324.473
194.520, 1358.072
195.898, 1018.988
197.275, 1206.535
198.652, 1094.686
200.029, 1101.455
201.405, 838.234
202.782, 716.131
204.158, 476.561
205.534, 670.053
206.909, 570.672
208.285, 90.477
209.660, 302.678
211.035, 62.906
212.410, 89.910
213.784, 182.855
215.159, 298.023
216.533, 289.482
217.907, 427.283
219.281, 397.447
220.654, 555.973
222.027, 608.865
223.400, 614.145
224.773, 663.865
226.146, 533.057
227.518, 622.736
228.891, 559.926
230.263, 577.643
231.634, 462.914
233.006, 232.725
234.377, 396.107
235.748, 259.117
237.119, 27.213
238.490, 12.781
239.860, 391.357
241.231, 342.727
242.601, 669.795
243.970, 808.471
245.340, 920.719
246.709, 1087.580
248.079, 989.076
249.448, 1375.445
250.816, 1185.881
252.185, 1463.680
253.553, 1523.088
254.921, 1248.234
256.289, 1444.189
257.657, 1370.975
259.024, 1422.615
260.391, 1329.119
261.758, 1434.488
263.125, 1102.717
264.492, 1158.801
265.858, 1280.662
267.224, 1083.605
268.590, 1210.078
269.956, 937.232
271.321, 1276.639
272.687, 1081.025
274.052, 1113.184
275.416, 1060.951
276.781, 1273.209
278.146, 1233.865
279.510, 966.848
280.874, 1244.086
282.237, 1213.514
283.601, 1369.066
284.964, 1467.520
286.327, 1140.426
287.690, 1535.188
289.053, 1496.988
290.416, 1318.820
291.778, 1677.670
293.140, 1656.520
294.502, 1812.318
295.863, 1766.992
297.225, 1885.475
298.586, 1932.727
299.947, 1873.748
301.308, 2118.596
302.668, 1937.336
304.029, 2057.020
305.389, 2284.652
306.749, 2391.193
308.108, 2312.662
309.468, 2672.070
310.827, 2508.443
312.186, 2775.781
313.545, 2735.076
314.903, 3025.387
316.262, 3207.664
317.620, 3256.877
318.978, 3698.910
320.336, 3752.734
321.693, 3988.000
323.051, 4116.559
324.408, 4388.316
325.765, 4391.117
327.121, 4831.982
328.478, 4620.078
329.834, 4853.492
331.190, 5111.592
332.546, 5437.463
333.902, 5246.586
335.257, 5702.227
336.612, 5605.496
337.967, 5955.461
339.322, 5865.156
340.677, 6086.619
342.031, 6318.863
343.385, 6261.859
344.739, 6737.314
346.093, 6694.650
347.446, 6851.277
348.799, 6897.264
350.153, 7265.154
351.505, 7632.969
352.858, 7822.660
354.210, 8155.824
355.563, 8391.527
356.915, 8800.898
358.267, 9128.441
359.618, 9636.076
360.969, 9866.867
362.321, 10662.984
363.672, 10860.719
365.022, 11461.602
366.373, 11888.400
367.723, 12516.023
369.073, 12965.184
370.423, 13598.762
371.773, 13914.988
373.122, 14251.426
374.471, 14875.980
375.821, 15675.707
377.169, 15690.117
378.518, 16781.324
379.866, 16713.611
381.215, 17320.012
382.563, 18300.752
383.910, 18753.557
385.258, 19256.426
386.605, 20096.686
387.952, 21282.717
389.299, 21795.828
390.646, 23376.793
391.992, 23944.225
393.339, 25349.023
394.685, 26836.234
396.031, 28424.418
397.376, 30200.775
398.722, 31014.309
400.067, 32420.750
401.412, 33193.539
402.757, 33696.105
404.101, 33966.992
405.446, 33851.555
406.790, 33407.430
408.134, 32759.656
409.478, 31681.783
410.821, 30331.348
412.165, 28626.449
413.508, 26259.754
414.851, 25070.701
416.193, 23133.660
417.536, 21721.906
418.878, 19614.273
420.220, 18056.939
421.562, 16525.645
422.904, 15101.414
424.245, 13799.738
425.586, 12742.449
426.927, 11413.910
428.268, 10373.564
429.609, 9334.215
430.949, 8192.078
432.289, 7719.848
433.629, 7419.385
434.969, 6423.713
436.309, 6253.951
437.648, 5531.461
438.987, 5489.754
440.326, 4881.578
441.665, 4809.324
443.003, 4910.592
444.342, 5157.434
445.680, 4599.637
447.018, 4193.967
448.355, 4512.623
449.693, 4534.684
451.030, 4442.311
452.367, 4407.930
453.704, 4717.729
455.041, 5041.307
456.377, 5554.229
457.713, 5981.723
459.049, 6723.479
460.385, 7335.203
461.721, 8173.465
463.056, 9154.539
464.391, 9680.648
465.726, 10243.062
467.061, 11213.234
468.395, 11835.670
469.730, 12365.596
471.064, 13590.852
472.398, 13819.254
473.731, 15430.617
475.065, 16178.648
476.398, 17963.629
477.731, 19097.459
479.064, 20593.148
480.397, 21124.701
481.729, 21831.268
483.062, 21930.561
484.394, 20903.734
485.725, 20093.797
487.057, 18336.762
488.389, 16899.625
489.720, 15030.406
491.051, 13121.109
492.382, 11590.412
493.712, 10107.113
495.043, 8776.486
496.373, 7582.742
497.703, 6485.180
499.032, 5515.902
500.362, 4737.793
501.691, 3948.430
503.020, 3483.984
504.349, 2695.145
505.678, 2573.602
507.007, 2266.797
508.335, 1876.990
509.663, 1577.352
510.991, 1469.148
512.319, 1472.111
513.646, 1293.961
514.973, 1155.807
516.300, 947.215
517.627, 1008.455
518.954, 891.168
520.280, 555.820
521.607, 737.516
522.933, 556.000
524.259, 551.797
525.584, 431.887
526.910, 271.244
528.235, 422.131
529.560, 182.043
530.885, 350.533
532.209, 129.316
533.534, 103.441
534.858, 152.385
536.182, 58.041
537.506, 124.232
538.829, 16.533
540.152, 105.428
541.476, 53.922
542.799, 54.293
544.121, 245.916
545.444, 121.309
546.766, 26.654
548.088, 101.314
549.410, 119.387
550.732, 22.492
552.053, 174.715
553.375, 69.051
554.696, 85.076
556.017, 94.980
557.337, 109.826
558.658, 170.883
559.978, 146.273
561.298, 23.717
562.618, 202.338
563.938, 11.719
565.257, 81.080
566.576, 185.652
567.895, 37.217
569.214, 264.264
570.533, 323.600
571.851, 276.715
573.170, 218.332
574.488, 279.787
575.805, 418.633
577.123, 352.184
578.440, 453.539
579.758, 498.715
581.075, 761.666
582.391, 664.744
583.708, 915.932
585.024, 873.830
586.341, 940.248
587.657, 1161.301
588.972, 1406.160
590.288, 1490.029
591.603, 1564.902
592.918, 1463.750
594.233, 1763.578
595.548, 2098.391
596.863, 2520.184
598.177, 2481.969
599.491, 2656.734
600.805, 3053.490
602.119, 3087.225
603.432, 3400.947
604.746, 3911.650
606.059, 4076.336
607.372, 4128.012
608.685, 4175.668
609.997, 4212.453
611.309, 4151.988
612.621, 4202.645
613.933, 4014.287
615.245, 3990.910
616.557, 3729.521
617.868, 3867.115
619.179, 3270.689
620.490, 3207.248
621.801, 2789.783
623.111, 2716.301
624.421, 2275.803
625.731, 2451.279
627.041, 1743.736
628.351, 2093.170
629.660, 1570.578
630.970, 1296.986
632.279, 1389.365
633.588, 987.719
634.896, 912.041
636.205, 718.332
637.513, 637.949
638.821, 461.824
640.129, 627.029
641.437, 759.205
642.744, 811.348
644.051, 789.713
645.358, 555.549
646.665, 562.602
647.972, 573.623
649.278, 331.617
650.584, 459.574
651.890, 281.498
653.196, 513.385
654.502, 279.236
655.807, 389.051
657.113, 2.830
658.418, 144.553
659.722, 149.230
661.027, 51.137
662.331, 137.582
663.636, 112.145
664.940, 192.184
666.244, 206.527
667.547, 146.607
668.851, 273.303
670.154, 19.400
671.457, 100.568
672.760, 235.842
674.062, 136.709
675.365, 168.781
676.667, 111.209
677.969, 92.615
679.271, 67.723
680.572, 53.076
681.874, 77.645
683.175, 42.059
684.476, 31.334
685.777, 9.924
687.077, 73.244
688.378, 63.559
689.678, 153.541
690.978, 51.227
692.278, 36.088
693.577, 395.836
694.877, 241.602
696.176, 44.676
697.475, 269.082
698.774, 109.377
700.072, 343.412
701.371, 180.730
702.669, 215.951
703.967, 97.824
705.265, 300.537
706.562, 539.133
707.860, 280.221
709.157, 40.512
710.454, 430.287
711.751, 185.000
713.047, 442.295
714.344, 330.518
715.640, 419.955
716.936, 181.189
718.232, 376.744
719.527, 436.605
720.823, 436.154
722.118, 380.799
723.413, 575.545
724.708, 411.473
726.002, 219.287
727.297, 717.535
728.591, 138.473
729.885, 467.672
731.179, 560.229
732.472, 384.492
733.766, 425.889
735.059, 465.203
736.352, 515.402
737.645, 481.578
738.937, 450.395
740.230, 574.535
741.522, 388.885
742.814, 469.102
744.106, 621.654
745.397, 527.377
746.689, 571.926
747.980, 533.473
749.271, 643.451
750.562, 703.266
751.853, 869.379
753.143, 552.590
754.433, 851.578
755.723, 812.498
757.013, 727.498
758.303, 1040.014
759.592, 905.250
760.881, 1158.918
762.170, 1120.816
763.459, 1376.355
764.748, 1228.820
766.036, 1333.455
767.325, 1711.801
768.613, 1440.779
769.901, 1843.994
771.188, 1955.873
772.476, 1677.156
773.763, 2022.178
775.050, 1715.729
776.337, 2051.617
777.624, 2019.795
778.910, 2274.980
780.196, 1934.674
781.482, 2070.828
782.768, 1778.043
784.054, 1791.537
785.339, 1991.496
786.625, 2040.859
787.910, 1702.770
789.195, 1856.631
790.479, 1615.795
791.764, 1630.955
793.048, 1563.053
794.332, 1440.678
795.616, 1405.576
796.900, 1196.562
798.183, 1238.277
799.467, 888.980
800.750, 1112.619
802.033, 1052.191
803.316, 758.301
804.598, 1006.922
805.880, 738.297
807.163, 1156.719
808.445, 1095.963
809.726, 1020.246
811.008, 959.924
812.289, 1061.318
813.570, 1027.844
814.851, 1168.326
816.132, 1134.086
817.413, 1097.436
818.693, 933.943
819.973, 1156.352
821.253, 878.496
822.533, 895.592
823.813, 975.465
825.092, 690.854
826.371, 599.158
827.650, 583.822
828.929, 543.578
830.208, 374.791
831.486, 507.000
832.764, 232.094
834.042, 189.328
835.320, 252.186
836.598, 221.695
837.875, 226.881
839.152, 18.502
840.429, 224.029
841.706, 433.934
842.983, 154.562
844.259, 126.709
845.536, 264.270
846.812, 42.057
848.088, 49.377
849.363, 98.309
850.639, 96.594
851.914, 65.754
853.189, 5.732
854.464, 46.514
855.739, 73.639
857.013, 116.271
858.288, 114.998
859.562, 199.998
860.836, 215.779
862.110, 343.619
863.383, 31.625
864.656, 429.018
865.930, 83.371
867.203, 220.775
868.475, 202.701
869.748, 214.963
871.020, 239.869
872.292, 94.199
873.564, 199.418
874.836, 40.604
876.108, 39.488
877.379, 120.217
878.650, 123.035
879.922, 50.428
881.192, 12.416
882.463, 86.178
883.733, 121.479
885.004, 6.732
886.274, 2.467
887.544, 8.221
888.813, 130.186
890.083, 36.256
891.352, 4.086
892.621, 158.234
893.890, 27.393
895.159, 106.377
896.427, 51.561
897.695, 103.387
898.964, 42.082
900.232, 198.666
901.499, 78.615
902.767, 100.521
904.034, 286.385
905.301, 5.787
906.568, 304.984
907.835, 355.721
909.102, 210.422
910.368, 69.086
911.634, 118.711
912.900, 332.297
914.166, 164.850
915.432, 394.367
916.697, 14.850
917.962, 152.705
919.227, 334.619
920.492, 57.910
921.757, 230.164
923.021, 9.615
924.285, 171.561
925.550, 315.717
926.813, 71.846
928.077, 223.984
929.341, 126.094
930.604, 107.174
931.867, 289.221
933.130, 79.240
934.393, 47.229
935.655, 364.184
936.918, 103.883
938.180, 505.969
939.442, 48.797
940.703, 42.594
941.965, 298.365
943.226, 175.107
944.488, 31.170
945.749, 0.506
947.009, 318.148
948.270, 145.770
949.530, 10.613
950.791, 305.986
952.051, 240.562
953.311, 231.117
954.570, 26.660
955.830, 310.174
957.089, 276.668
958.348, 300.145
959.607, 245.604
960.866, 264.432
962.124, 297.848
963.383, 282.930
964.641, 427.434
965.899, 451.969
967.156, 596.541
968.414, 416.117
969.671, 503.717
970.928, 705.336
972.185, 336.939
973.442, 800.586
974.699, 646.219
975.955, 930.912
977.211, 947.607
978.468, 801.320
979.723, 1108.086
980.979, 1074.840
982.234, 797.428
983.490, 1476.244
984.745, 611.373
986.000, 1240.355
987.254, 1369.635
988.509, 1176.834
989.763, 1546.084
991.017, 1320.203
992.271, 1347.516
993.525, 1408.480
994.779, 1628.574
996.032, 1769.547
997.285, 1809.123
998.538, 2043.686
999.791, 1731.102
1001.044, 2491.752
1002.296, 2152.670
1003.548, 2529.406
1004.800, 2161.971
1006.052, 2124.691
1007.304, 2331.855
1008.555, 2007.195
1009.807, 2313.598
1011.058, 2188.355
1012.309, 2258.168
1013.559, 2412.365
1014.810, 2336.955
1016.060, 2328.148
1017.310, 2638.426
1018.560, 2551.275
1019.810, 2459.047
1021.060, 2462.867
1022.309, 2758.797
1023.558, 2447.113
1024.807, 2764.867
1026.056, 2608.777
1027.305, 2657.973
1028.553, 2665.455
1029.801, 2613.795
1031.049, 2634.895
1032.297, 2404.051
1033.545, 2550.645
1034.793, 2791.080
1036.040, 2400.332
1037.287, 2259.146
1038.534, 2595.410
1039.781, 2494.924
1041.027, 2604.658
1042.274, 2636.383
1043.520, 2483.363
1044.766, 2538.758
1046.012, 2374.238
1047.257, 2180.318
1048.503, 2081.451
1049.748, 2359.219
1050.993, 2121.164
1052.238, 2449.615
1053.483, 2272.168
1054.727, 2115.355
1055.971, 2066.379
1057.216, 2043.879
1058.459, 2163.734
1059.703, 2054.771
1060.947, 2135.219
1062.190, 1987.881
1063.433, 2098.043
1064.676, 2139.908
1065.919, 2226.355
1067.162, 1874.988
1068.404, 2256.488
1069.646, 2739.639
1070.888, 2634.459
1072.130, 3196.604
1073.372, 2565.783
1074.613, 2603.561
1075.855, 2877.107
1077.096, 2679.305
1078.337, 2769.846
1079.578, 2957.021
1080.818, 3238.463
1082.059, 3405.820
1083.299, 3534.924
1084.539, 3912.656
1085.779, 3820.047
1087.018, 3982.320
1088.258, 3915.971
1089.497, 4135.867
1090.736, 4088.715
1091.975, 4369.787
1093.213, 4335.715
1094.452, 4246.496
1095.690, 4512.744
1096.928, 4296.824
1098.166, 4542.195
1099.404, 4652.777
1100.642, 4830.410
1101.879, 4607.850
1103.116, 4717.078
1104.353, 4630.488
1105.590, 4921.205
1106.827, 4795.996
1108.063, 5131.338
1109.299, 4800.146
1110.536, 4833.518
1111.771, 5067.977
1113.007, 4919.854
1114.243, 5004.223
1115.478, 5021.887
1116.713, 4796.547
1117.948, 4897.076
1119.183, 4955.934
1120.418, 4602.777
1121.652, 4797.949
1122.886, 5004.293
1124.120, 4965.090
1125.354, 5027.635
1126.588, 4726.402
1127.821, 5009.822
1129.055, 4736.945
1130.288, 4989.988
1131.521, 4748.414
1132.753, 4821.656
1133.986, 4571.320
1135.218, 4498.789
1136.450, 4939.398
1137.682, 4256.781
1138.914, 4658.340
1140.146, 4198.652
1141.377, 4262.332
1142.609, 4237.180
1143.840, 4193.031
1145.071, 4320.637
1146.301, 4145.648
1147.532, 4140.160
1148.762, 4075.531
1149.992, 3940.504
1151.222, 3694.668
1152.452, 3727.711
1153.682, 3737.906
1154.911, 3241.676
1156.140, 3519.449
1157.369, 3101.773
1158.598, 3299.555
1159.827, 3076.328
1161.055, 3269.551
1162.284, 2938.031
1163.512, 2915.852
1164.740, 2802.750
1165.967, 2911.535
1167.195, 2817.836
1168.422, 2841.891
1169.650, 2652.602
1170.877, 2568.383
1172.103, 2294.160
1173.330, 2117.938
1174.557, 2102.230
1175.783, 2288.031
1177.009, 2151.863
1178.235, 1607.898
1179.461, 1814.770
1180.686, 1655.223
1181.912, 1695.098
1183.137, 1654.422
1184.362, 1553.875
1185.587, 1538.250
1186.811, 1276.367
1188.036, 1353.348
1189.260, 1209.438
1190.484, 989.723
1191.708, 1081.367
1192.932, 1054.371
1194.155, 768.195
1195.378, 810.016
1196.602, 748.973
1197.825, 776.484
1199.047, 464.590
1200.270, 692.812
1201.492, 513.234
1202.715, 754.184
1203.937, 659.461
1205.159, 552.219
1206.380, 403.199
1207.602, 398.445
1208.823, 355.168
1210.044, 279.281
1211.265, 361.594
1212.486, 188.266
1213.707, 146.270
1214.927, 123.188
1216.147, 382.410
1217.367, 172.250
1218.587, 397.875
1219.807, 83.484
1221.027, 37.609
1222.246, 170.602
1223.465, 160.797
1224.684, 172.832
1225.903, 171.301
1227.121, 100.547
1228.340, 218.707
1229.558, 153.293
1230.776, 212.609
1231.994, 5.891
1233.212, 8.887
1234.429, 149.309
1235.646, 183.383
1236.864, 4.395
1238.081, 311.305
1239.297, 69.125
1240.514, 101.734
1241.730, 293.270
1242.947, 45.629
1244.163, 66.082
1245.378, 33.879
1246.594, 148.238
1247.810, 194.289
1249.025, 27.734
1250.240, 293.301
1251.455, 124.109
1252.670, 104.836
1253.885, 210.469
1255.099, 98.023
1256.313, 21.500
1257.527, 187.762
1258.741, 162.234
1259.955, 153.789
1261.168, 158.242
1262.382, 120.605
1263.595, 149.363
1264.808, 534.055
1266.021, 71.020
1267.233, 225.566
1268.446, 182.152
1269.658, 396.551
1270.870, 11.875
1272.082, 366.113
1273.294, 148.273
1274.505, 216.371
1275.716, 43.406
1276.928, 137.348
1278.139, 100.773
1279.349, 372.004
1280.560, 117.930
1281.770, 84.602
1282.981, 130.230
1284.191, 72.352
1285.401, 141.145
1286.610, 77.031
1287.820, 74.152
1289.029, 64.586
1290.239, 51.699
1291.448, 7.266
1292.656, 115.613
1293.865, 153.219
1295.073, 72.816
1296.282, 228.402
1297.490, 65.031
1298.698, 237.504
1299.906, 655.027
1301.113, 453.754
1302.320, 216.012
1303.528, 369.488
1304.735, 368.938
1305.942, 250.363
1307.148, 190.773
1308.355, 353.086
1309.561, 50.383
1310.767, 605.609
1311.973, 271.754
1313.179, 280.781
1314.384, 156.703
1315.590, 469.582
1316.795, 526.430
1318.000, 621.250
1319.205, 261.043
1320.410, 657.816
1321.614, 461.176
1322.819, 147.492
1324.023, 631.660
1325.227, 257.258
1326.431, 552.332
1327.634, 263.215
1328.838, 28.094
1330.041, 273.117
1331.244, 303.098
1332.447, 349.980
1333.650, 15.441
1334.852, 128.195
1336.055, 104.125
1337.257, 0.078
1338.459, 164.586
1339.661, 109.332
1340.862, 344.320
1342.064, 111.227
1343.265, 143.301
1344.466, 199.965
1345.667, 319.297
1346.868, 188.504
1348.068, 455.422
1349.269, 237.531
1350.469, 170.988
1351.669, 473.391
1352.869, 337.820
1354.069, 179.707
1355.268, 383.527
1356.468, 73.484
1357.667, 345.457
1358.866, 342.484
1360.065, 226.043
1361.263, 305.273
1362.462, 121.746
1363.660, 102.363
1364.858, 239.480
1366.056, 158.055
1367.254, 338.625
1368.451, 269.223
1369.649, 401.020
1370.846, 114.625
1372.043, 463.605
1373.240, 601.523
1374.436, 383.754
1375.633, 394.961
1376.829, 422.637
1378.025, 320.500
1379.221, 484.406
1380.417, 394.504
1381.613, 546.234
1382.808, 388.359
1384.003, 491.207
1385.199, 430.086
1386.393, 480.055
1387.588, 428.848
1388.783, 418.176
1389.977, 289.793
1391.171, 314.879
1392.365, 265.449
1393.559, 129.660
1394.753, 354.945
1395.946, 189.797
1397.140, 271.980
1398.333, 304.711
1399.526, 343.875
1400.719, 57.762
1401.911, 146.773
1403.104, 87.898
1404.296, 234.633
1405.488, 170.324
1406.680, 189.516
1407.872, 134.121
1409.063, 26.781
1410.255, 170.328
1411.446, 73.516
1412.637, 322.059
1413.828, 300.336
1415.018, 288.410
1416.209, 295.633
1417.399, 339.359
1418.589, 191.664
1419.779, 413.738
1420.969, 184.758
1422.159, 152.215
1423.348, 5.410
1424.537, 206.758
1425.726, 143.266
1426.915, 18.844
1428.104, 0.000
##END=



