##NAMES=Humite
##RRUFFID=R040071
##IDEAL CHEMISTRY=Mg_7_(SiO_4_)_3_(F,OH)_2_
##LOCALITY=Tilly Foster mine, Brewster, Putnam County, New York, USA
##OWNER=RRUFF
##SOURCE=University of Arizona Mineral Museum
##DESCRIPTION=Red crystals
##STATUS=The identification of this mineral has been confirmed by X-ray diffraction and chemical analysis
##URL=rruff.info/R040071
##MEASURED CHEMISTRY=(Mg_0.91_Fe_0.09_)_7_(Si_0.99_Ti_0.01_O_4_)_3_(F_0.76_(OH)_0.24_)_2_
##PIN_ID=L00333
##ORIENTATION=Laser parallel to -c* (0 0 -1). Fiducial mark perpendicular to laser is parallel to a [1 0 0]
54.966, 0.000
56.365, 12.847
57.765, 26.150
59.164, 32.290
60.563, 8.854
61.962, 19.318
63.360, 36.160
64.758, 12.808
66.157, 32.403
67.554, 46.439
68.952, 41.674
70.349, 39.257
71.747, 78.928
73.144, 64.528
74.540, 42.048
75.937, 42.859
77.333, 29.845
78.729, 22.860
80.125, 29.875
81.521, 1.981
82.916, 33.170
84.311, 30.438
85.706, 3.782
87.101, 29.802
88.496, 17.315
89.890, 1.239
91.284, 54.858
92.678, 55.538
94.071, 42.277
95.465, 59.073
96.858, 41.923
98.251, 47.826
99.644, 35.780
101.036, 35.992
102.428, 37.830
103.820, 40.918
105.212, 70.044
106.604, 83.201
107.995, 87.333
109.387, 63.608
110.777, 94.859
112.168, 68.144
113.559, 69.467
114.949, 113.826
116.339, 139.220
117.729, 149.650
119.119, 117.116
120.508, 89.614
121.897, 56.144
123.286, 69.705
124.675, 65.295
126.063, 62.912
127.452, 70.555
128.840, 51.224
130.228, 61.918
131.615, 88.636
133.003, 95.378
134.390, 66.142
135.777, 90.930
137.164, 93.741
138.550, 130.578
139.937, 122.449
141.323, 104.348
142.709, 120.269
144.094, 145.205
145.480, 105.153
146.865, 117.109
148.250, 94.066
149.635, 98.024
151.019, 77.980
152.403, 85.930
153.788, 94.883
155.171, 74.795
156.555, 103.702
157.939, 50.620
159.322, 68.550
160.705, 79.491
162.088, 137.444
163.470, 159.419
164.853, 147.467
166.235, 148.558
167.617, 199.695
168.998, 217.874
170.380, 204.090
171.761, 245.332
173.142, 216.588
174.523, 223.854
175.904, 253.142
177.284, 217.453
178.664, 235.789
180.044, 262.139
181.424, 289.501
182.803, 281.872
184.183, 315.923
185.562, 311.636
186.940, 360.026
188.319, 374.422
189.698, 394.822
191.076, 422.228
192.454, 478.639
193.831, 570.056
195.209, 589.477
196.586, 664.905
197.963, 618.338
199.340, 637.778
200.717, 628.225
202.093, 637.680
203.470, 600.143
204.846, 621.616
206.221, 629.099
207.597, 703.594
208.972, 642.100
210.347, 537.619
211.722, 355.150
213.097, 305.695
214.472, 226.253
215.846, 311.824
217.220, 304.410
218.594, 293.008
219.967, 334.619
221.341, 326.737
222.714, 348.789
224.087, 398.764
225.460, 418.671
226.832, 520.464
228.204, 529.216
229.577, 615.910
230.948, 627.419
232.320, 663.945
233.692, 684.459
235.063, 734.875
236.434, 742.241
237.805, 735.477
239.175, 689.662
240.545, 754.752
241.916, 731.889
243.286, 719.953
244.655, 738.976
246.025, 724.118
247.394, 734.741
248.763, 718.980
250.132, 709.230
251.501, 691.170
252.869, 644.146
254.237, 615.985
255.605, 610.036
256.973, 557.494
258.340, 551.963
259.708, 477.420
261.075, 448.913
262.442, 401.407
263.808, 392.922
265.175, 364.414
266.541, 331.950
267.907, 316.497
269.273, 288.075
270.639, 270.476
272.004, 238.902
273.369, 231.432
274.734, 209.086
276.099, 173.387
277.463, 178.886
278.828, 234.278
280.192, 185.308
281.556, 176.036
282.919, 204.097
284.283, 158.985
285.646, 185.325
287.009, 180.989
288.372, 186.111
289.734, 158.804
291.097, 144.570
292.459, 164.258
293.821, 167.140
295.183, 152.883
296.544, 182.739
297.905, 150.515
299.266, 181.283
300.627, 150.381
301.988, 178.205
303.348, 179.594
304.709, 164.329
306.069, 249.143
307.428, 247.886
308.788, 318.982
310.147, 364.732
311.507, 439.486
312.865, 524.244
314.224, 626.006
315.583, 683.771
316.941, 760.539
318.299, 827.311
319.657, 885.087
321.015, 916.516
322.372, 952.649
323.729, 933.435
325.086, 930.225
326.443, 886.017
327.800, 834.814
329.156, 868.618
330.512, 751.428
331.868, 765.246
333.224, 760.069
334.579, 727.902
335.935, 713.253
337.290, 680.597
338.645, 647.470
339.999, 614.363
341.354, 578.280
342.708, 548.215
344.062, 518.084
345.416, 450.146
346.769, 445.140
348.123, 407.157
349.476, 334.204
350.829, 314.284
352.182, 309.395
353.534, 242.539
354.887, 193.715
356.239, 174.920
357.591, 118.157
358.942, 102.417
360.294, 137.700
361.645, 90.004
362.996, 67.328
364.347, 78.669
365.698, 38.027
367.048, 15.404
368.398, 32.803
369.748, 21.211
371.098, 24.626
372.448, 6.052
373.797, 9.489
375.146, 1.935
376.495, 9.385
377.844, 60.834
379.192, 42.282
380.540, 111.727
381.889, 69.170
383.236, 81.609
384.584, 110.044
385.932, 103.474
387.279, 95.899
388.626, 103.320
389.973, 99.738
391.319, 63.151
392.666, 96.560
394.012, 83.967
395.358, 61.370
396.704, 17.770
398.049, 38.167
399.394, 59.562
400.740, 40.954
402.084, 45.343
403.429, 28.731
404.774, 58.116
406.118, 52.500
407.462, 74.881
408.806, 51.260
410.150, 116.639
411.493, 177.014
412.836, 150.386
414.179, 167.756
415.522, 181.132
416.865, 193.511
418.207, 170.887
419.549, 137.258
420.891, 161.624
422.233, 124.986
423.575, 123.343
424.916, 77.694
426.257, 85.040
427.598, 84.380
428.939, 34.716
430.279, 10.045
431.619, 22.632
432.959, 35.328
434.299, 46.051
435.639, 3.194
436.978, 25.569
438.318, 12.354
439.657, 26.154
440.996, 19.978
442.334, 2.178
443.673, 19.674
445.011, 16.547
446.349, 7.440
447.687, 28.654
449.024, 3.260
450.361, 18.812
451.699, 5.878
453.036, 39.934
454.372, 14.017
455.709, 14.012
457.045, 12.967
458.381, 10.035
459.717, 10.973
461.053, 0.001
462.388, 6.961
463.724, 4.088
465.059, 33.848
466.394, 10.774
467.728, 27.691
469.063, 1.600
470.397, 45.494
471.731, 59.380
473.065, 82.257
474.398, 108.058
475.732, 125.984
477.065, 132.834
478.398, 138.675
479.731, 114.506
481.063, 195.328
482.396, 184.140
483.728, 164.943
485.060, 189.737
486.391, 141.521
487.723, 127.425
489.054, 136.879
490.385, 94.369
491.716, 137.081
493.047, 118.533
494.377, 124.531
495.708, 99.550
497.038, 129.596
498.368, 162.115
499.697, 123.964
501.027, 167.485
502.356, 145.096
503.685, 125.055
505.014, 173.736
506.342, 144.391
507.671, 143.089
508.999, 161.333
510.327, 131.120
511.655, 140.826
512.982, 138.955
514.310, 184.504
515.637, 172.726
516.964, 181.251
518.291, 168.136
519.617, 198.699
520.944, 215.006
522.270, 218.740
523.596, 204.038
524.921, 233.520
526.247, 223.938
527.572, 221.486
528.897, 184.835
530.222, 233.559
531.547, 217.542
532.871, 223.591
534.196, 194.829
535.520, 230.021
536.844, 217.394
538.167, 196.634
539.491, 242.826
540.814, 237.998
542.137, 249.150
543.460, 288.283
544.783, 290.396
546.105, 302.490
547.427, 320.563
548.749, 283.617
550.071, 278.651
551.393, 296.666
552.714, 334.661
554.035, 300.637
555.356, 297.593
556.677, 327.530
557.998, 336.447
559.318, 350.344
560.638, 389.223
561.958, 355.082
563.278, 390.921
564.597, 355.741
565.917, 411.542
567.236, 394.324
568.555, 447.087
569.874, 427.830
571.192, 462.554
572.511, 528.260
573.829, 541.946
575.147, 595.613
576.464, 645.261
577.782, 697.890
579.099, 785.501
580.416, 834.092
581.733, 960.665
583.050, 1071.219
584.366, 1196.755
585.683, 1396.272
586.999, 1552.770
588.315, 1778.250
589.630, 2106.690
590.946, 2443.701
592.261, 2870.874
593.576, 3331.337
594.891, 3834.667
596.206, 4452.341
597.520, 5176.809
598.834, 5857.374
600.148, 6419.292
601.462, 6829.504
602.776, 7319.372
604.089, 7294.406
605.402, 7217.977
606.715, 6881.216
608.028, 6307.988
609.341, 5568.179
610.653, 4925.287
611.965, 4159.463
613.277, 3535.436
614.589, 2967.539
615.901, 2446.520
617.212, 2074.571
618.523, 1794.620
619.834, 1522.331
621.145, 1317.305
622.456, 1114.706
623.766, 924.751
625.076, 838.708
626.386, 714.727
627.696, 607.384
629.006, 501.377
630.315, 444.357
631.624, 338.324
632.933, 283.279
634.242, 266.222
635.551, 206.153
636.859, 220.072
638.167, 122.979
639.475, 148.875
640.783, 118.760
642.090, 106.634
643.398, 80.497
644.705, 45.349
646.012, 23.188
647.318, 21.009
648.625, 14.811
649.931, 19.593
651.237, 7.358
652.543, 6.095
653.849, 11.189
655.155, 35.506
656.460, 41.685
657.765, 53.275
659.070, 39.736
660.375, 46.243
661.679, 42.797
662.984, 43.397
664.288, 61.042
665.592, 86.740
666.895, 96.506
668.199, 96.343
669.502, 104.251
670.805, 96.232
672.108, 92.283
673.411, 98.400
674.713, 73.586
676.016, 69.827
677.318, 67.120
678.620, 59.463
679.921, 53.852
681.223, 58.282
682.524, 58.755
683.825, 78.271
685.126, 28.838
686.427, 20.430
687.727, 42.042
689.028, 44.684
690.328, 33.357
691.628, 18.053
692.927, 2.764
694.227, 2.518
695.526, 16.093
696.825, 21.956
698.124, 36.347
699.423, 35.620
700.721, 46.891
702.020, 59.161
703.318, 69.430
704.616, 97.699
705.913, 95.968
707.211, 125.236
708.508, 193.504
709.805, 215.773
711.102, 237.043
712.399, 310.314
713.695, 365.586
714.992, 448.859
716.288, 488.135
717.584, 542.412
718.879, 592.692
720.175, 676.975
721.470, 771.260
722.765, 769.549
724.060, 821.841
725.355, 930.136
726.649, 998.436
727.944, 1033.741
729.238, 1079.049
730.532, 1137.363
731.825, 1202.681
733.119, 1262.005
734.412, 1282.335
735.705, 1274.670
736.998, 1339.011
738.291, 1423.360
739.584, 1466.714
740.876, 1564.075
742.168, 1654.444
743.460, 1715.820
744.752, 1856.204
746.043, 1945.596
747.334, 2128.002
748.626, 2149.429
749.916, 2355.875
751.207, 2524.333
752.498, 2569.807
753.788, 2634.294
755.078, 2730.801
756.368, 2713.323
757.658, 2740.856
758.947, 2695.407
760.237, 2627.979
761.526, 2590.569
762.815, 2623.172
764.104, 2457.797
765.392, 2499.445
766.680, 2372.108
767.969, 2398.806
769.257, 2507.527
770.544, 2588.267
771.832, 2756.036
773.119, 2847.825
774.406, 2983.642
775.693, 3319.485
776.980, 3509.357
778.267, 3925.253
779.553, 4257.171
780.839, 4505.106
782.125, 4568.064
783.411, 4696.055
784.697, 4500.065
785.982, 4238.108
787.267, 3998.185
788.552, 3557.291
789.837, 3214.427
791.122, 2918.590
792.406, 2759.774
793.690, 2539.986
794.974, 2446.223
796.258, 2279.496
797.542, 2333.794
798.825, 2265.118
800.108, 2367.330
801.391, 2290.003
802.674, 2384.657
803.957, 2506.110
805.239, 2560.837
806.522, 2698.029
807.804, 2699.217
809.085, 2988.402
810.367, 3042.125
811.649, 3213.529
812.930, 3492.279
814.211, 3750.952
815.492, 4111.291
816.772, 4575.923
818.053, 5068.589
819.333, 5660.228
820.613, 6395.335
821.893, 7456.908
823.173, 8686.574
824.452, 10029.827
825.732, 11997.665
827.011, 14105.847
828.290, 16862.729
829.568, 20249.268
830.847, 24326.139
832.125, 28895.283
833.403, 33249.996
834.681, 36391.164
835.959, 38764.176
837.236, 39765.242
838.514, 39556.203
839.791, 38962.375
841.068, 38586.176
842.345, 37852.750
843.621, 37052.250
844.898, 34462.582
846.174, 31247.969
847.450, 28031.193
848.726, 23967.559
850.001, 20884.992
851.277, 18378.455
852.552, 16606.949
853.827, 15307.479
855.102, 14476.039
856.376, 14366.634
857.651, 14924.258
858.925, 15462.918
860.199, 16173.612
861.473, 16730.342
862.746, 17015.104
864.020, 16781.904
865.293, 15574.740
866.566, 14634.608
867.839, 12939.513
869.112, 11235.453
870.384, 9803.430
871.656, 8421.450
872.928, 7113.506
874.200, 6259.595
875.472, 5361.721
876.744, 4724.885
878.015, 4226.084
879.286, 3769.317
880.557, 3419.584
881.828, 3054.887
883.098, 2737.225
884.369, 2491.597
885.639, 2237.005
886.909, 2096.450
888.178, 1963.931
889.448, 1765.446
890.717, 1749.001
891.987, 1524.589
893.256, 1486.212
894.524, 1419.870
895.793, 1322.562
897.061, 1204.287
898.330, 1165.047
899.598, 1095.841
900.865, 1052.668
902.133, 951.529
903.401, 967.424
904.668, 921.353
905.935, 876.316
907.202, 884.312
908.468, 910.342
909.735, 932.406
911.001, 957.742
912.267, 959.297
913.533, 995.186
914.799, 1042.607
916.064, 1013.676
917.330, 1053.062
918.595, 979.727
919.860, 915.318
921.124, 896.415
922.389, 802.034
923.653, 783.774
924.918, 720.654
926.182, 741.902
927.445, 701.648
928.709, 660.427
929.972, 686.123
931.236, 664.284
932.499, 671.514
933.761, 729.507
935.024, 720.882
936.286, 808.606
937.549, 869.681
938.811, 872.003
940.073, 927.897
941.334, 955.701
942.596, 1014.829
943.857, 1067.812
945.118, 1095.820
946.379, 1245.031
947.640, 1278.028
948.900, 1462.651
950.161, 1532.655
951.421, 1658.743
952.681, 1830.153
953.940, 1860.425
955.200, 1859.262
956.459, 1990.839
957.719, 2240.302
958.978, 2681.476
960.236, 3289.173
961.495, 3991.621
962.753, 4972.811
964.012, 5860.458
965.270, 6681.333
966.527, 6882.523
967.785, 7281.948
969.043, 6676.590
970.300, 6053.197
971.557, 5203.860
972.814, 4478.599
974.071, 3767.395
975.327, 3309.245
976.583, 2737.152
977.840, 2435.113
979.095, 2087.127
980.351, 1776.195
981.607, 1615.310
982.862, 1399.864
984.117, 1241.122
985.372, 1169.369
986.627, 986.180
987.882, 960.052
989.136, 865.419
990.390, 787.063
991.644, 793.956
992.898, 724.427
994.152, 714.932
995.405, 674.747
996.659, 676.369
997.912, 649.389
999.165, 653.657
1000.417, 617.695
1001.670, 592.883
1002.922, 594.584
1004.174, 595.277
1005.426, 623.988
1006.678, 595.795
1007.930, 592.543
1009.181, 552.370
1010.432, 550.153
1011.683, 560.359
1012.934, 516.318
1014.185, 495.603
1015.435, 528.580
1016.685, 476.944
1017.935, 468.861
1019.185, 519.575
1020.435, 507.334
1021.684, 476.329
1022.934, 522.274
1024.183, 456.116
1025.432, 484.360
1026.680, 488.285
1027.929, 454.391
1029.177, 451.736
1030.425, 423.774
1031.673, 434.335
1032.921, 414.008
1034.169, 401.271
1035.416, 382.437
1036.663, 365.040
1037.911, 340.601
1039.157, 331.162
1040.404, 339.185
1041.650, 311.343
1042.897, 327.781
1044.143, 320.948
1045.389, 278.126
1046.634, 237.337
1047.880, 234.535
1049.125, 178.742
1050.371, 148.958
1051.615, 144.185
1052.860, 78.419
1054.105, 70.632
1055.349, 54.913
1056.593, 41.173
1057.837, 20.441
1059.081, 38.716
1060.325, 1.999
1061.568, 26.713
1062.812, 28.425
1064.055, 11.139
1065.298, 52.850
1066.540, 57.568
1067.783, 15.300
1069.025, 111.026
1070.267, 24.796
1071.509, 35.567
1072.751, 56.345
1073.993, 38.141
1075.234, 43.947
1076.475, 51.767
1077.716, 68.604
1078.957, 28.466
1080.198, 36.339
1081.438, 15.223
1082.679, 30.113
1083.919, 71.009
1085.159, 21.937
1086.398, 62.873
1087.638, 81.839
1088.877, 56.839
1090.116, 53.866
1091.355, 40.920
1092.594, 18.995
1093.833, 36.078
1095.071, 38.182
1096.309, 66.303
1097.547, 25.459
1098.785, 30.629
1100.023, 8.181
1101.260, 0.990
1102.498, 31.207
1103.735, 39.425
1104.972, 16.669
1106.208, 5.074
1107.445, 24.190
1108.681, 47.474
1109.918, 10.210
1111.154, 3.113
1112.389, 9.444
1113.625, 11.791
1114.860, 0.844
1116.096, 0.533
1117.331, 18.076
1118.566, 1.321
1119.800, 0.733
1121.035, 73.840
1122.269, 93.407
1123.503, 153.969
1124.737, 184.525
1125.971, 108.074
1127.205, 83.616
1128.438, 39.151
1129.671, 38.677
1130.904, 18.195
1132.137, 30.701
1133.370, 56.197
1134.602, 17.684
1135.834, 18.155
1137.066, 40.611
1138.298, 29.057
1139.530, 23.495
1140.762, 76.913
1141.993, 68.320
1143.224, 48.856
1144.455, 31.241
1145.686, 42.621
1146.917, 57.988
1148.147, 32.406
1149.377, 29.798
1150.607, 51.110
1151.837, 61.409
1153.067, 57.728
1154.296, 51.054
1155.526, 70.379
1156.755, 54.636
1157.984, 68.868
1159.213, 42.086
1160.441, 23.286
1161.670, 42.778
1162.898, 56.989
1164.126, 43.331
1165.354, 65.453
1166.581, 35.753
1167.809, 35.837
1169.036, 10.095
1170.263, 76.155
1171.490, 37.419
1172.717, 59.479
1173.943, 37.626
1175.170, 70.653
1176.396, 59.953
1177.622, 80.885
1178.848, 54.960
1180.073, 61.358
1181.299, 91.082
1182.524, 58.111
1183.749, 58.972
1184.974, 62.109
1186.199, 71.929
1187.423, 42.768
1188.648, 92.680
1189.872, 73.447
1191.096, 114.473
1192.320, 103.782
1193.543, 96.515
1194.767, 103.284
1195.990, 108.272
1197.213, 114.202
1198.436, 135.697
1199.659, 129.389
1200.881, 143.072
1202.104, 141.721
1203.326, 141.575
1204.548, 169.315
1205.770, 142.076
1206.991, 180.575
1208.213, 177.238
1209.434, 198.102
1210.655, 155.853
1211.876, 182.115
1213.096, 186.944
1214.317, 201.759
1215.537, 183.818
1216.757, 167.906
1217.977, 201.940
1219.197, 177.262
1220.417, 204.314
1221.636, 189.445
1222.855, 171.972
1224.074, 209.292
1225.293, 194.365
1226.512, 204.458
1227.731, 229.129
1228.949, 204.637
1230.167, 206.721
1231.385, 211.184
1232.603, 214.437
1233.820, 235.187
1235.038, 199.771
1236.255, 183.048
1237.472, 235.146
1238.689, 192.869
1239.906, 206.498
1241.122, 188.441
1242.338, 188.758
1243.555, 210.404
1244.771, 171.253
1245.986, 222.350
1247.202, 197.302
1248.417, 170.225
1249.633, 204.975
1250.848, 152.371
1252.063, 168.399
1253.277, 148.953
1254.492, 155.214
1255.706, 145.708
1256.920, 137.299
1258.134, 148.061
1259.348, 128.671
1260.562, 128.111
1261.775, 162.119
1262.988, 106.917
1264.201, 100.604
1265.414, 124.291
1266.627, 155.057
1267.839, 138.965
1269.052, 152.861
1270.264, 151.348
1271.476, 137.026
1272.688, 132.645
1273.899, 106.146
1275.111, 105.217
1276.322, 133.196
1277.533, 92.342
1278.744, 91.846
1279.955, 82.268
1281.165, 121.148
1282.376, 81.071
1283.586, 125.458
1284.796, 79.725
1286.006, 80.675
1287.215, 85.992
1288.425, 53.302
1289.634, 91.588
1290.843, 78.697
1292.052, 78.870
1293.261, 64.237
1294.469, 66.052
1295.678, 88.721
1296.886, 88.877
1298.094, 73.043
1299.302, 68.234
1300.509, 65.291
1301.717, 78.397
1302.924, 82.419
1304.131, 94.483
1305.338, 83.123
1306.545, 34.010
1307.752, 66.572
1308.958, 43.443
1310.164, 86.919
1311.370, 43.841
1312.576, 80.957
1313.782, 42.028
1314.987, 67.857
1316.193, 34.723
1317.398, 57.686
1318.603, 41.242
1319.807, 54.114
1321.012, 23.797
1322.216, 67.234
1323.421, 2.032
1324.625, 33.174
1325.829, 39.501
1327.032, 36.186
1328.236, 59.346
1329.439, 22.487
1330.642, 57.664
1331.845, 48.016
1333.048, 33.538
1334.251, 53.101
1335.453, 20.376
1336.656, 5.915
1337.858, 46.435
1339.060, 37.916
1340.261, 56.401
1341.463, 20.869
1342.664, 22.319
1343.866, 36.751
1345.067, 35.167
1346.267, 36.566
1347.468, 15.948
1348.669, 22.314
1349.869, 18.662
1351.069, 48.993
1352.269, 21.309
1353.469, 36.610
1354.668, 38.898
1355.868, 34.176
1357.067, 10.559
1358.266, 0.694
1359.465, 7.789
1360.664, 43.173
1361.862, 3.414
1363.061, 13.644
1364.259, 28.865
1365.457, 10.085
1366.655, 33.297
1367.852, 7.506
1369.050, 25.712
1370.247, 36.921
1371.444, 30.125
1372.641, 63.325
1373.838, 13.481
1375.035, 34.704
1376.231, 16.897
1377.427, 42.086
1378.623, 10.635
1379.819, 4.571
1381.015, 30.785
1382.211, 45.009
1383.406, 5.770
1384.601, 26.449
1385.796, 4.324
1386.991, 6.081
1388.185, 3.307
1389.380, 13.467
1390.574, 21.230
1391.768, 0.008
1392.962, 27.780
1394.156, 6.570
1395.350, 4.651
1396.543, 40.130
1397.736, 1.094
1398.929, 15.677
1400.122, 69.432
1401.315, 8.836
1402.507, 16.876
1403.700, 13.569
1404.892, 30.248
1406.084, 55.912
1407.276, 21.567
1408.467, 35.204
1409.659, 16.665
1410.850, 1.264
1412.041, 36.762
1413.232, 4.272
1414.423, 20.807
1415.614, 21.217
1416.804, 47.747
1417.994, 22.280
1419.184, 45.342
1420.374, 23.608
1421.564, 17.876
1422.753, 48.108
1423.943, 86.214
1425.132, 24.405
1426.321, 39.402
1427.510, 11.961
1428.698, 24.960
1429.887, 48.906
1431.075, 38.215
1432.263, 47.366
1433.451, 7.422
1434.639, 72.582
1435.827, 11.542
1437.014, 51.375
1438.201, 69.417
1439.388, 76.914
1440.575, 44.798
1441.762, 26.656
1442.949, 58.748
1444.135, 34.952
1445.321, 71.342
1446.507, 78.333
1447.693, 58.844
1448.879, 43.354
1450.064, 52.283
1451.250, 67.420
1452.435, 72.146
1453.620, 71.971
1454.805, 40.427
1455.989, 60.448
1457.174, 47.943
1458.358, 24.239
1459.542, 39.735
1460.726, 46.665
1461.910, 85.908
1463.093, 63.443
1464.277, 61.036
1465.460, 36.938
1466.643, 36.950
1467.826, 30.529
1469.009, 63.848
1470.191, 54.338
1471.373, 51.157
1472.556, 84.161
1473.738, 34.400
1474.919, 86.614
1476.101, 78.690
1477.283, 92.827
1478.464, 64.699
1479.645, 72.810
1480.826, 57.037
1482.007, 52.277
1483.187, 79.512
1484.368, 56.006
1485.548, 51.057
1486.728, 73.658
1487.908, 31.775
1489.088, 39.873
1490.268, 38.920
1491.447, 64.978
1492.626, 68.058
1493.805, 48.173
1494.984, 22.348
1496.163, 73.534
1497.341, 16.780
1498.520, 51.054
1499.698, 42.331
1500.876, 59.649
1502.054, 25.975
1503.232, 77.317
1504.409, 49.689
1505.586, 57.088
1506.763, 6.545
1507.940, 53.047
1509.117, 65.593
1510.294, 47.198
1511.470, 62.869
1512.647, 44.609
1513.823, 18.421
1514.999, 51.314
1516.174, 54.303
1517.350, 29.408
1518.526, 31.648
1519.701, 2.952
1520.876, 24.641
1522.051, 10.471
1523.226, 7.608
1524.400, 33.363
1525.574, 3.352
1526.749, 6.684
1527.923, 0.000
##END=



