##NAMES=Microcline
##RRUFFID=R050054
##IDEAL CHEMISTRY=KAlSi_3_O_8_
##LOCALITY=Kenticha, Negele area, Sidamo Province, Ethiopia
##OWNER=RRUFF
##SOURCE=Rock Currier
##DESCRIPTION=Light blue single crystal
##STATUS=The identification of this mineral has been confirmed by X-ray diffraction and chemical analysis
##URL=rruff.info/R050054
##MEASURED CHEMISTRY=(K_0.96_Na_0.04_)Al_1.00_Si_3.00_O_8_
##PIN_ID=M00128
##ORIENTATION=Laser parallel to (-1 -1 0). Fiducial mark perpendicular to laser is parallel to -c [0 0 -1]
97.121, 0.000
98.519, 51.801
99.917, 7.868
101.314, 55.440
102.712, 168.058
104.109, 693.036
105.505, 1235.830
106.902, 2245.920
108.298, 3506.649
109.694, 4581.363
111.090, 5158.420
112.486, 4447.188
113.881, 3111.362
115.277, 1991.750
116.672, 1186.885
118.066, 729.348
119.461, 649.179
120.855, 647.560
122.249, 1014.053
123.643, 1633.935
125.036, 2490.095
126.430, 3190.152
127.823, 3883.109
129.216, 4017.064
130.608, 3733.579
132.001, 2698.865
133.393, 1837.954
134.785, 1149.542
136.176, 675.424
137.568, 337.209
138.959, 91.162
140.350, 71.558
141.741, 32.659
143.131, 155.693
144.521, 295.857
145.911, 550.323
147.301, 1075.241
148.691, 1544.745
150.080, 2196.103
151.469, 2475.642
152.858, 2411.466
154.247, 2142.187
155.635, 1759.977
157.024, 1496.264
158.411, 1368.022
159.799, 1376.247
161.187, 1279.168
162.574, 1172.976
163.961, 1111.350
165.348, 938.811
166.734, 938.181
168.121, 811.965
169.507, 944.502
170.893, 1032.511
172.278, 1238.225
173.664, 1678.610
175.049, 2272.282
176.434, 3227.692
177.819, 4497.898
179.203, 5676.910
180.587, 6292.843
181.971, 6048.979
183.355, 5062.324
184.739, 3947.874
186.122, 3078.610
187.505, 2293.509
188.888, 1740.556
190.271, 1459.733
191.653, 1162.028
193.035, 1164.426
194.417, 1202.914
195.799, 1489.479
197.180, 1868.107
198.562, 2423.784
199.943, 2683.879
201.324, 2833.546
202.704, 2548.888
204.084, 1991.723
205.465, 1423.453
206.844, 1091.750
208.224, 865.375
209.603, 624.362
210.983, 462.351
212.362, 375.235
213.740, 263.351
215.119, 166.259
216.497, 62.703
217.875, 41.573
219.253, 9.839
220.631, 97.508
222.008, 70.606
223.385, 99.933
224.762, 132.382
226.139, 142.842
227.515, 151.535
228.891, 159.438
230.267, 132.967
231.643, 145.000
233.018, 106.851
234.394, 77.641
235.769, 114.932
237.144, 104.322
238.518, 68.839
239.893, 74.137
241.267, 30.139
242.641, 28.580
244.014, 7.730
245.388, 48.379
246.761, 166.283
248.134, 308.545
249.507, 428.169
250.879, 629.510
252.252, 902.588
253.624, 1302.458
254.996, 1823.193
256.367, 2521.864
257.739, 3262.501
259.110, 3858.115
260.481, 4199.706
261.852, 4279.059
263.222, 4515.391
264.592, 5091.985
265.962, 5876.062
267.332, 6453.987
268.702, 6286.904
270.071, 5726.031
271.440, 4587.955
272.809, 3627.681
274.178, 2935.180
275.546, 2223.339
276.915, 2004.301
278.283, 1783.149
279.650, 1880.871
281.018, 2184.452
282.385, 2850.880
283.752, 3551.142
285.119, 4491.219
286.486, 5337.127
287.852, 5647.872
289.218, 5349.455
290.584, 4633.876
291.950, 3789.139
293.316, 3045.233
294.681, 2337.140
296.046, 1861.838
297.411, 1478.305
298.775, 1108.534
300.140, 847.526
301.504, 702.291
302.868, 592.840
304.231, 483.084
305.595, 375.962
306.958, 306.553
308.321, 244.751
309.684, 210.702
311.047, 177.126
312.409, 195.385
313.771, 197.483
315.133, 262.427
316.495, 150.220
317.856, 141.863
319.217, 171.330
320.578, 91.591
321.939, 204.573
323.299, 148.228
324.660, 225.420
326.020, 260.129
327.380, 390.334
328.739, 531.064
330.099, 686.367
331.458, 832.299
332.817, 914.882
334.176, 906.188
335.534, 845.269
336.892, 642.217
338.251, 534.090
339.608, 388.916
340.966, 366.697
342.323, 276.435
343.681, 224.127
345.037, 237.772
346.394, 252.371
347.751, 197.922
349.107, 193.423
350.463, 235.874
351.819, 308.274
353.174, 329.625
354.530, 539.927
355.885, 578.184
357.240, 379.394
358.594, 669.555
359.949, 506.835
361.303, 653.739
362.657, 401.762
364.011, 376.733
365.365, 342.643
366.718, 359.483
368.071, 506.243
369.424, 539.923
370.777, 717.540
372.129, 928.071
373.481, 1034.728
374.833, 1153.631
376.185, 932.891
377.537, 713.103
378.888, 584.944
380.239, 472.229
381.590, 444.724
382.941, 308.718
384.291, 300.019
385.642, 281.020
386.992, 240.190
388.341, 242.333
389.691, 101.840
391.040, 168.830
392.389, 80.355
393.738, 168.573
395.087, 196.060
396.435, 227.967
397.784, 274.741
399.132, 375.217
400.479, 642.402
401.827, 890.860
403.174, 1316.027
404.521, 1509.995
405.868, 1557.104
407.215, 1320.531
408.561, 1068.740
409.908, 1040.470
411.254, 1092.646
412.599, 1312.550
413.945, 1509.300
415.290, 1464.525
416.636, 1186.739
417.980, 941.940
419.325, 613.130
420.670, 445.309
422.014, 253.476
423.358, 199.631
424.702, 110.769
426.045, 115.844
427.389, 21.854
428.732, 135.796
430.075, 153.673
431.417, 106.484
432.760, 147.228
434.102, 180.906
435.444, 214.710
436.786, 270.423
438.127, 311.913
439.469, 389.543
440.810, 451.532
442.151, 582.338
443.492, 725.078
444.832, 887.559
446.172, 1285.057
447.512, 1671.237
448.852, 2429.569
450.192, 3389.714
451.531, 4942.690
452.870, 6747.817
454.209, 8345.821
455.548, 9464.391
456.887, 8933.809
458.225, 7631.805
459.563, 6084.933
460.901, 4659.060
462.238, 3728.700
463.576, 2982.930
464.913, 2657.652
466.250, 2443.955
467.587, 2541.679
468.923, 2686.965
470.259, 3088.691
471.596, 3791.092
472.931, 4894.127
474.267, 6364.326
475.603, 7928.504
476.938, 8873.192
478.273, 9136.762
479.608, 8440.195
480.942, 7193.973
482.276, 6146.619
483.611, 5412.668
484.944, 4877.082
486.278, 4265.259
487.612, 3739.710
488.945, 2961.934
490.278, 2455.733
491.611, 2136.168
492.943, 1856.844
494.276, 1755.500
495.608, 1636.138
496.940, 1741.759
498.271, 1777.976
499.603, 1987.737
500.934, 2323.887
502.265, 2814.940
503.596, 3462.567
504.927, 4419.764
506.257, 5748.085
507.587, 7746.538
508.917, 10110.545
510.247, 13444.525
511.577, 17908.871
512.906, 22313.660
514.235, 26198.531
515.564, 26084.291
516.892, 23890.205
518.221, 19635.287
519.549, 15071.583
520.877, 11457.197
522.205, 8553.708
523.533, 6638.950
524.860, 5195.197
526.187, 4014.266
527.514, 3401.613
528.841, 2849.458
530.167, 2355.316
531.493, 1997.806
532.820, 1659.436
534.145, 1589.729
535.471, 1314.638
536.796, 1278.242
538.122, 1052.248
539.447, 951.903
540.771, 866.767
542.096, 798.847
543.420, 809.061
544.744, 635.445
546.068, 630.530
547.392, 608.216
548.715, 480.837
550.039, 464.161
551.362, 364.782
552.684, 399.895
554.007, 334.409
555.329, 326.181
556.652, 359.208
557.973, 210.537
559.295, 292.411
560.617, 239.545
561.938, 210.727
563.259, 251.959
564.580, 191.323
565.901, 208.641
567.221, 176.986
568.541, 165.962
569.861, 175.356
571.181, 179.761
572.501, 176.164
573.820, 198.570
575.139, 130.975
576.458, 156.374
577.777, 85.767
579.095, 220.153
580.414, 208.531
581.732, 300.617
583.049, 223.482
584.367, 217.979
585.685, 262.525
587.002, 197.686
588.319, 198.333
589.636, 140.076
590.952, 88.627
592.268, 91.356
593.585, 20.247
594.900, 26.285
596.216, 66.561
597.532, 20.075
598.847, 21.278
600.162, 13.374
601.477, 13.036
602.792, 0.689
604.106, 43.350
605.420, 37.976
606.734, 2.702
608.048, 18.615
609.361, 45.928
610.675, 0.239
611.988, 12.545
613.301, 25.153
614.614, 50.860
615.926, 5.583
617.238, 14.313
618.550, 16.049
619.862, 25.209
621.174, 67.464
622.485, 65.727
623.797, 33.992
625.108, 63.260
626.418, 53.535
627.729, 145.817
629.039, 92.111
630.349, 194.417
631.659, 168.735
632.969, 143.066
634.279, 250.410
635.588, 247.763
636.897, 281.132
638.206, 332.517
639.515, 276.914
640.823, 390.331
642.131, 478.760
643.439, 662.204
644.747, 735.660
646.055, 902.126
647.362, 1080.599
648.669, 1311.077
649.976, 1504.558
651.283, 1698.038
652.589, 1865.520
653.896, 1930.002
655.202, 1816.486
656.508, 1606.972
657.814, 1431.463
659.119, 1073.961
660.424, 963.465
661.729, 772.979
663.034, 631.505
664.339, 488.040
665.643, 406.585
666.947, 322.141
668.251, 212.709
669.555, 180.376
670.859, 131.350
672.162, 150.466
673.465, 73.063
674.768, 144.664
676.071, 89.271
677.373, 92.879
678.676, 1.492
679.978, 37.103
681.280, 11.720
682.581, 20.220
683.883, 24.370
685.184, 21.430
686.485, 77.826
687.786, 4.744
689.087, 23.686
690.387, 16.128
691.687, 136.288
692.987, 42.804
694.287, 87.246
695.586, 84.147
696.886, 18.764
698.185, 81.362
699.484, 55.906
700.783, 17.589
702.081, 10.266
703.379, 1.899
704.677, 3.660
705.975, 3.034
707.273, 3.511
708.570, 12.310
709.868, 117.744
711.165, 100.233
712.462, 100.720
713.758, 111.207
715.055, 95.523
716.351, 96.837
717.647, 86.186
718.943, 147.491
720.238, 40.164
721.533, 94.699
722.829, 154.085
724.124, 16.663
725.418, 153.743
726.713, 120.049
728.007, 89.479
729.301, 163.628
730.595, 114.230
731.889, 256.750
733.182, 241.356
734.476, 316.652
735.769, 409.873
737.061, 439.197
738.354, 589.520
739.647, 764.925
740.939, 978.303
742.231, 1217.471
743.523, 1563.865
744.814, 2145.707
746.106, 2762.057
747.397, 3470.706
748.688, 4413.397
749.978, 4730.568
751.269, 4703.837
752.559, 4237.192
753.849, 3483.817
755.139, 2904.872
756.429, 2206.593
757.719, 1853.927
759.008, 1495.774
760.297, 1247.284
761.586, 1132.353
762.875, 1001.262
764.163, 947.683
765.451, 948.837
766.739, 874.824
768.027, 838.727
769.315, 632.299
770.602, 560.885
771.890, 528.704
773.177, 405.304
774.463, 379.939
775.750, 294.849
777.036, 306.874
778.323, 284.995
779.609, 236.925
780.894, 254.090
782.180, 228.017
783.465, 250.528
784.750, 239.575
786.035, 220.698
787.320, 282.669
788.605, 241.633
789.889, 346.684
791.173, 322.919
792.457, 385.859
793.741, 323.791
795.024, 444.714
796.307, 489.630
797.591, 445.629
798.873, 514.527
800.156, 482.417
801.439, 612.297
802.721, 557.170
804.003, 763.033
805.285, 917.887
806.566, 1202.733
807.848, 1532.570
809.129, 2050.227
810.410, 2630.216
811.691, 3359.026
812.971, 4224.827
814.252, 5103.619
815.532, 5167.401
816.812, 4807.174
818.092, 3947.938
819.371, 2977.694
820.651, 2349.439
821.930, 1657.176
823.209, 1311.901
824.488, 970.618
825.766, 751.325
827.045, 641.022
828.323, 451.710
829.601, 423.388
830.878, 394.056
832.156, 323.714
833.433, 338.083
834.710, 212.652
835.987, 211.104
837.264, 186.580
838.540, 198.840
839.817, 278.206
841.093, 165.691
842.369, 139.033
843.644, 202.213
844.920, 40.712
846.195, 148.582
847.470, 64.744
848.745, 16.497
850.020, 92.379
851.294, 4.621
852.568, 46.572
853.842, 74.877
855.116, 68.089
856.390, 57.617
857.663, 20.486
858.936, 75.557
860.209, 21.341
861.482, 11.374
862.755, 40.591
864.027, 27.995
865.299, 29.390
866.571, 29.776
867.843, 91.153
869.115, 102.522
870.386, 61.006
871.657, 75.652
872.928, 6.413
874.199, 4.173
875.470, 48.137
876.740, 65.561
878.010, 36.102
879.280, 18.656
880.550, 27.562
881.820, 16.229
883.089, 7.042
884.358, 18.124
885.627, 14.280
886.896, 52.427
888.164, 68.565
889.433, 42.697
890.701, 41.821
891.969, 22.937
893.236, 69.949
894.504, 0.887
895.771, 4.841
897.038, 45.812
898.305, 30.178
899.572, 10.160
900.838, 43.871
902.105, 24.062
903.371, 18.006
904.637, 22.941
905.902, 41.867
907.168, 48.791
908.433, 50.706
909.698, 47.377
910.963, 109.504
912.228, 1.379
913.492, 55.247
914.757, 42.107
916.021, 6.962
917.285, 38.806
918.548, 27.643
919.812, 62.473
921.075, 13.296
922.338, 17.116
923.601, 41.934
924.864, 48.747
926.126, 27.556
927.388, 95.360
928.650, 21.843
929.912, 40.931
931.174, 85.697
932.435, 36.457
933.697, 79.210
934.958, 3.958
936.218, 48.693
937.479, 28.423
938.739, 67.146
940.000, 160.862
941.260, 39.573
942.520, 10.276
943.779, 121.972
945.039, 103.661
946.298, 91.343
947.557, 66.019
948.816, 38.688
950.074, 140.352
951.333, 73.009
952.591, 117.661
953.849, 92.306
955.107, 98.944
956.365, 156.577
957.622, 85.205
958.879, 64.826
960.136, 154.443
961.393, 124.053
962.650, 131.659
963.906, 85.260
965.162, 86.854
966.418, 165.443
967.674, 71.027
968.930, 174.606
970.185, 147.179
971.441, 134.748
972.696, 116.311
973.950, 132.870
975.205, 144.423
976.459, 196.971
977.714, 140.515
978.968, 271.052
980.222, 315.585
981.475, 262.113
982.729, 324.637
983.982, 319.169
985.235, 323.697
986.488, 389.221
987.740, 292.741
988.993, 508.261
990.245, 576.783
991.497, 679.307
992.749, 918.842
994.000, 958.377
995.252, 1089.914
996.503, 1051.157
997.754, 912.730
999.005, 981.213
1000.256, 821.133
1001.506, 735.745
1002.756, 698.331
1004.006, 572.840
1005.256, 634.479
1006.506, 598.104
1007.755, 508.694
1009.005, 517.078
1010.254, 367.721
1011.502, 428.138
1012.751, 367.301
1014.000, 212.859
1015.248, 220.381
1016.496, 254.903
1017.744, 286.437
1018.991, 230.287
1020.239, 265.984
1021.486, 323.642
1022.733, 265.799
1023.980, 166.118
1025.227, 246.718
1026.473, 151.501
1027.719, 195.214
1028.965, 271.779
1030.211, 255.412
1031.457, 304.913
1032.702, 241.114
1033.948, 188.423
1035.193, 314.805
1036.438, 215.373
1037.682, 288.959
1038.927, 216.801
1040.171, 240.485
1041.415, 279.030
1042.659, 201.242
1043.903, 156.719
1045.146, 208.397
1046.390, 226.200
1047.633, 321.192
1048.876, 211.670
1050.118, 279.842
1051.361, 262.966
1052.603, 227.185
1053.845, 278.606
1055.087, 325.109
1056.329, 169.977
1057.571, 251.530
1058.812, 178.386
1060.053, 181.618
1061.294, 275.240
1062.535, 168.209
1063.775, 167.778
1065.016, 109.289
1066.256, 97.659
1067.496, 105.150
1068.736, 80.629
1069.975, 88.315
1071.214, 131.854
1072.454, 116.435
1073.693, 160.135
1074.931, 56.684
1076.170, 120.247
1077.408, 241.829
1078.647, 71.498
1079.885, 133.981
1081.122, 166.636
1082.360, 162.457
1083.597, 208.041
1084.835, 192.134
1086.072, 239.964
1087.308, 244.396
1088.545, 240.301
1089.781, 294.873
1091.018, 351.375
1092.254, 427.925
1093.490, 525.485
1094.725, 457.042
1095.961, 696.603
1097.196, 778.151
1098.431, 812.744
1099.666, 1076.408
1100.900, 951.947
1102.135, 956.517
1103.369, 844.048
1104.603, 788.576
1105.837, 724.323
1107.071, 648.879
1108.304, 573.696
1109.538, 524.319
1110.771, 474.004
1112.004, 412.729
1113.236, 456.232
1114.469, 437.730
1115.701, 547.644
1116.933, 592.134
1118.165, 601.793
1119.397, 799.673
1120.629, 799.188
1121.860, 960.944
1123.091, 1145.501
1124.322, 1048.975
1125.553, 1354.872
1126.783, 1126.338
1128.014, 1116.799
1129.244, 1037.612
1130.474, 813.372
1131.704, 929.015
1132.933, 926.456
1134.163, 833.955
1135.392, 1055.799
1136.621, 1043.225
1137.850, 1224.882
1139.079, 1299.489
1140.307, 1160.898
1141.535, 1191.829
1142.763, 965.553
1143.991, 930.944
1145.219, 844.279
1146.446, 518.799
1147.674, 527.418
1148.901, 526.039
1150.128, 386.419
1151.354, 412.970
1152.581, 320.545
1153.807, 269.988
1155.033, 260.817
1156.259, 218.252
1157.485, 183.960
1158.710, 276.801
1159.936, 70.733
1161.161, 209.110
1162.386, 169.553
1163.611, 89.850
1164.835, 206.675
1166.060, 37.286
1167.284, 114.935
1168.508, 181.495
1169.732, 7.062
1170.955, 164.376
1172.179, 39.052
1173.402, 29.287
1174.625, 118.925
1175.848, 71.530
1177.070, 83.757
1178.293, 136.472
1179.515, 5.131
1180.737, 131.083
1181.959, 133.292
1183.181, 11.495
1184.402, 118.893
1185.624, 34.555
1186.845, 45.726
1188.066, 120.796
1189.286, 25.856
1190.507, 119.270
1191.727, 104.583
1192.947, 0.718
1194.167, 130.892
1195.387, 93.446
1196.607, 85.567
1197.826, 92.917
1199.045, 71.138
1200.264, 80.929
1201.483, 77.119
1202.702, 9.582
1203.920, 149.615
1205.138, 15.321
1206.356, 22.964
1207.574, 115.967
1208.792, 70.161
1210.009, 147.258
1211.227, 145.232
1212.444, 33.437
1213.661, 165.389
1214.877, 87.303
1216.094, 72.234
1217.310, 37.218
1218.526, 45.275
1219.742, 47.575
1220.958, 90.060
1222.173, 65.138
1223.389, 101.047
1224.604, 80.652
1225.819, 134.502
1227.034, 81.571
1228.248, 19.269
1229.463, 149.257
1230.677, 136.240
1231.891, 29.699
1233.105, 147.482
1234.318, 26.023
1235.532, 151.012
1236.745, 98.772
1237.958, 40.525
1239.171, 138.378
1240.384, 128.117
1241.596, 105.370
1242.809, 236.570
1244.021, 74.435
1245.233, 79.472
1246.444, 111.168
1247.656, 101.008
1248.867, 138.685
1250.079, 125.581
1251.290, 57.393
1252.500, 84.041
1253.711, 57.678
1254.921, 85.487
1256.132, 70.089
1257.342, 59.937
1258.552, 113.535
1259.761, 156.103
1260.971, 19.907
1262.180, 161.444
1263.389, 72.969
1264.598, 23.701
1265.807, 106.203
1267.015, 47.719
1268.223, 98.129
1269.432, 178.526
1270.640, 23.360
1271.847, 175.817
1273.055, 158.119
1274.262, 33.521
1275.470, 44.793
1276.677, 34.950
1277.883, 156.279
1279.090, 104.495
1280.296, 26.700
1281.503, 143.934
1282.709, 63.090
1283.915, 74.233
1285.120, 180.638
1286.326, 17.752
1287.531, 42.852
1288.736, 154.910
1289.941, 14.046
1291.146, 87.976
1292.350, 62.984
1293.555, 61.978
1294.759, 118.104
1295.963, 77.062
1297.167, 70.006
1298.370, 99.937
1299.574, 6.148
1300.777, 98.984
1301.980, 34.852
1303.183, 38.322
1304.386, 14.469
1305.588, 94.764
1306.790, 64.042
1307.993, 129.878
1309.195, 38.452
1310.396, 44.187
1311.598, 35.656
1312.799, 2.744
1314.000, 77.845
1315.201, 75.541
1316.402, 28.480
1317.603, 142.068
1318.803, 31.373
1320.003, 36.855
1321.203, 170.295
1322.403, 23.716
1323.603, 80.112
1324.802, 161.063
1326.002, 331.425
1327.201, 170.771
1328.400, 72.819
1329.599, 24.131
1330.797, 167.232
1331.995, 28.637
1333.194, 74.610
1334.392, 160.082
1335.589, 78.486
1336.787, 119.488
1337.985, 108.313
1339.182, 28.472
1340.379, 150.653
1341.576, 62.779
1342.772, 44.114
1343.969, 173.203
1345.165, 83.226
1346.361, 25.215
1347.557, 155.900
1348.753, 104.911
1349.949, 45.611
1351.144, 138.307
1352.339, 65.278
1353.534, 86.166
1354.729, 157.114
1355.924, 55.052
1357.118, 156.726
1358.312, 1.357
1359.506, 165.515
1360.700, 98.033
1361.894, 77.681
1363.088, 127.355
1364.281, 179.097
1365.474, 63.952
1366.667, 101.702
1367.860, 13.410
1369.052, 123.332
1370.245, 57.141
1371.437, 31.137
1372.629, 70.292
1373.821, 69.772
1375.013, 5.876
1376.204, 118.509
1377.395, 3.094
1378.586, 59.684
1379.777, 220.566
1380.968, 153.424
1382.159, 87.997
1383.349, 209.788
1384.539, 128.598
1385.729, 168.027
1386.919, 78.435
1388.109, 37.750
1389.298, 131.475
1390.487, 78.714
1391.676, 158.756
1392.865, 61.053
1394.054, 79.585
1395.242, 148.690
1396.431, 130.851
1397.619, 66.243
1398.807, 183.672
1399.995, 52.656
1401.182, 109.596
1402.370, 180.387
1403.557, 55.401
1404.744, 195.167
1405.931, 222.897
1407.118, 60.974
1408.304, 135.889
1409.490, 104.097
1410.676, 16.842
1411.862, 264.977
1413.048, 4.015
1414.234, 57.634
1415.419, 166.176
1416.604, 61.470
1417.789, 199.663
1418.974, 115.326
1420.159, 87.375
1421.343, 98.854
1422.528, 219.579
1423.712, 76.246
1424.896, 154.446
1426.079, 131.762
1427.263, 17.098
1428.446, 216.940
1429.629, 147.127
1430.812, 128.405
1431.995, 264.006
1433.178, 117.431
1434.360, 124.441
1435.543, 126.373
1436.725, 40.400
1437.907, 141.090
1439.088, 132.367
1440.270, 107.466
1441.451, 172.436
1442.632, 11.329
1443.813, 105.135
1444.994, 168.350
1446.175, 68.759
1447.355, 102.229
1448.535, 153.712
1449.715, 6.356
1450.895, 226.152
1452.075, 138.550
1453.255, 94.465
1454.434, 116.694
1455.613, 56.310
1456.792, 151.724
1457.971, 160.662
1459.149, 4.318
1460.328, 266.951
1461.506, 138.166
1462.684, 97.729
1463.862, 221.519
1465.040, 82.508
1466.217, 113.561
1467.395, 198.637
1468.572, 132.999
1469.749, 218.308
1470.925, 209.486
1472.102, 75.920
1473.278, 243.167
1474.455, 194.537
1475.631, 126.858
1476.807, 202.606
1477.982, 139.859
1479.158, 64.052
1480.333, 259.316
1481.508, 32.706
1482.683, 76.144
1483.858, 276.535
1485.033, 77.913
1486.207, 148.253
1487.381, 185.672
1488.555, 84.021
1489.729, 186.488
1490.903, 117.277
1492.076, 65.155
1493.250, 212.086
1494.423, 38.104
1495.596, 79.219
1496.769, 302.432
1497.941, 127.771
1499.114, 98.991
1500.286, 163.685
1501.458, 13.395
1502.630, 231.804
1503.802, 177.331
1504.973, 42.155
1506.145, 161.033
1507.316, 214.616
1508.487, 100.768
1509.657, 280.979
1510.828, 204.455
1511.999, 125.215
1513.169, 283.887
1514.339, 0.425
1515.509, 0.000
##END=



