##NAMES=Natrolite
##RRUFFID=R040102
##IDEAL CHEMISTRY=Na_2_(Si_3_Al_2_)O_10_&#183;2H_2_O
##LOCALITY=Ross' Quarry, Northland, New Zealand
##OWNER=RRUFF
##SOURCE=University of Arizona Mineral Museum
##DESCRIPTION=Mass of colorless acicular crystals
##STATUS=The identification of this mineral has been confirmed by X-ray diffraction and chemical analysis
##URL=rruff.info/R040102
##MEASURED CHEMISTRY=(Na_0.92_Ca_0.02_)_2_(Si_3.03_Al_1.99_)O_10_Â·2H_2_O
##PIN_ID=S00542
##ORIENTATION=Laser parallel to b* (0 1 0). Fiducial mark perpendicular to laser is parallel to -c [0 0 -1]
91.284, 0.000
92.678, 154.508
94.071, 17.771
95.465, 313.383
96.858, 158.049
98.251, 269.873
99.644, 564.609
101.036, 749.303
102.428, 562.025
103.820, 581.565
105.212, 906.714
106.604, 1106.242
107.995, 1359.309
109.387, 1545.683
110.777, 1644.941
112.168, 1596.852
113.559, 1941.788
114.949, 2159.451
116.339, 2549.089
117.729, 2680.000
119.119, 2711.514
120.508, 2963.166
121.897, 3665.095
123.286, 3697.618
124.675, 3721.352
126.063, 3297.455
127.452, 3115.662
128.840, 2973.365
130.228, 3080.257
131.615, 3359.750
133.003, 3603.421
134.390, 3840.420
135.777, 4199.339
137.164, 4767.896
138.550, 5015.109
139.937, 5330.418
141.323, 5325.237
142.709, 5194.434
144.094, 4924.938
145.480, 4561.748
146.865, 3995.993
148.250, 3518.411
149.635, 3150.064
151.019, 3184.363
152.403, 3221.916
153.788, 3399.648
155.171, 3630.990
156.555, 4476.816
157.939, 5490.629
159.322, 6118.422
160.705, 6277.637
162.088, 6490.967
163.470, 6253.423
164.853, 5511.846
166.235, 4916.236
167.617, 4158.969
168.998, 3632.699
170.380, 3070.624
171.761, 2793.851
173.142, 2363.459
174.523, 2154.050
175.904, 1993.115
177.284, 1819.587
178.664, 1776.467
180.044, 1590.384
181.424, 1691.717
182.803, 1529.422
184.183, 1487.379
185.562, 1471.836
186.940, 1466.470
188.319, 1196.434
189.698, 1236.540
191.076, 1124.256
192.454, 1229.650
193.831, 1120.437
195.209, 1158.362
196.586, 1221.116
197.963, 1131.820
199.340, 1212.535
200.717, 1203.241
202.093, 1285.740
203.470, 1333.301
204.846, 1352.101
206.221, 1180.905
207.597, 1078.679
208.972, 996.217
210.347, 862.263
211.722, 726.332
213.097, 679.406
214.472, 611.914
215.846, 593.203
217.220, 432.724
218.594, 411.534
219.967, 350.163
221.341, 208.602
222.714, 236.850
224.087, 54.904
225.460, 112.764
226.832, 30.434
228.204, 37.911
229.577, 104.797
230.948, 46.435
232.320, 84.358
233.692, 55.676
235.063, 216.752
236.434, 257.685
237.805, 408.809
239.175, 389.780
240.545, 410.203
241.916, 460.237
243.286, 354.661
244.655, 147.660
246.025, 114.917
247.394, 40.036
248.763, 259.362
250.132, 42.264
251.501, 252.537
252.869, 290.205
254.237, 245.345
255.605, 276.069
256.973, 223.906
258.340, 255.295
259.708, 179.283
261.075, 306.081
262.442, 214.808
263.808, 191.523
265.175, 188.289
266.541, 109.152
267.907, 92.133
269.273, 9.262
270.639, 94.545
272.004, 36.025
273.369, 69.292
274.734, 50.588
276.099, 89.294
277.463, 91.954
278.828, 141.376
280.192, 98.551
281.556, 116.464
282.919, 172.112
284.283, 217.493
285.646, 212.608
287.009, 158.455
288.372, 272.027
289.734, 209.322
291.097, 345.331
292.459, 268.044
293.821, 404.467
295.183, 594.602
296.544, 577.441
297.905, 759.970
299.266, 1002.175
300.627, 1114.049
301.988, 1365.603
303.348, 1686.834
304.709, 1867.758
306.069, 1698.384
307.428, 1670.168
308.788, 1458.776
310.147, 1188.557
311.507, 978.071
312.865, 697.319
314.224, 636.315
315.583, 603.047
316.941, 495.483
318.299, 551.639
319.657, 507.483
321.015, 642.999
322.372, 548.149
323.729, 562.912
325.086, 626.196
326.443, 652.069
327.800, 748.626
329.156, 823.929
330.512, 878.994
331.868, 913.834
333.224, 927.166
334.579, 957.496
335.935, 946.088
337.290, 999.090
338.645, 1081.528
339.999, 1133.455
341.354, 1224.838
342.708, 1245.762
344.062, 1336.322
345.416, 1446.571
346.769, 1466.571
348.123, 1506.319
349.476, 1455.878
350.829, 1545.244
352.182, 1504.440
353.534, 1713.464
354.887, 1762.184
356.239, 1940.904
357.591, 1989.330
358.942, 1907.795
360.294, 2036.159
361.645, 1844.332
362.996, 1702.513
364.347, 1480.603
365.698, 1238.590
367.048, 1166.457
368.398, 904.197
369.748, 781.806
371.098, 728.985
372.448, 685.693
373.797, 645.718
375.146, 656.061
376.495, 648.097
377.844, 599.742
379.192, 654.208
380.540, 617.590
381.889, 510.712
383.236, 462.233
384.584, 605.163
385.932, 535.374
387.279, 545.031
388.626, 513.170
389.973, 532.772
391.319, 486.663
392.666, 620.918
394.012, 632.801
395.358, 493.016
396.704, 648.367
398.049, 608.654
399.394, 609.376
400.740, 611.304
402.084, 752.985
403.429, 704.756
404.774, 976.864
406.118, 1138.020
407.462, 1266.889
408.806, 1325.166
410.150, 1537.037
411.493, 1635.136
412.836, 1756.865
414.179, 1815.403
415.522, 1691.589
416.865, 1680.611
418.207, 1547.738
419.549, 1568.023
420.891, 1376.244
422.233, 1379.160
423.575, 1313.992
424.916, 1464.415
426.257, 1486.158
427.598, 1417.956
428.939, 1714.574
430.279, 1912.105
431.619, 2104.678
432.959, 2451.742
434.299, 3082.319
435.639, 3847.768
436.978, 4577.107
438.318, 5462.683
439.657, 6418.164
440.996, 6594.363
442.334, 6479.698
443.673, 6095.199
445.011, 5391.402
446.349, 4578.143
447.687, 4064.615
449.024, 3100.412
450.361, 2707.283
451.699, 2223.850
453.036, 1861.223
454.372, 1638.900
455.709, 1336.529
457.045, 1265.525
458.381, 1094.510
459.717, 1044.289
461.053, 1024.376
462.388, 936.393
463.724, 937.178
465.059, 914.555
466.394, 862.000
467.728, 903.690
469.063, 927.282
470.397, 917.842
471.731, 868.316
473.065, 797.694
474.398, 888.787
475.732, 909.572
477.065, 1017.242
478.398, 1007.173
479.731, 1104.920
481.063, 1211.954
482.396, 1119.533
483.728, 996.456
485.060, 1303.656
486.391, 1220.757
487.723, 1287.957
489.054, 1335.830
490.385, 1443.745
491.716, 1432.168
493.047, 1684.461
494.377, 1562.373
495.708, 1705.750
497.038, 1823.940
498.368, 1852.428
499.697, 1981.089
501.027, 2099.757
502.356, 2248.767
503.685, 2377.737
505.014, 2616.414
506.342, 2705.463
507.671, 2984.260
508.999, 3123.141
510.327, 3351.732
511.655, 3440.537
512.982, 3779.010
514.310, 3968.398
515.637, 4298.497
516.964, 4616.758
518.291, 4855.123
519.617, 5283.308
520.944, 6051.467
522.270, 6699.590
523.596, 7537.686
524.921, 9565.744
526.247, 11713.841
527.572, 14311.826
528.897, 17588.703
530.222, 20845.053
531.547, 22841.164
532.871, 23107.080
534.196, 21212.812
535.520, 19088.578
536.844, 15324.293
538.167, 12559.807
539.491, 9555.542
540.814, 7701.121
542.137, 5956.256
543.460, 5001.192
544.783, 4036.740
546.105, 3292.010
547.427, 3087.357
548.749, 2542.602
550.071, 2187.975
551.393, 1843.199
552.714, 1679.104
554.035, 1675.144
555.356, 1480.631
556.677, 1428.868
557.998, 1352.835
559.318, 1298.880
560.638, 1204.938
561.958, 1181.597
563.278, 948.060
564.597, 915.664
565.917, 933.396
567.236, 841.126
568.555, 958.862
569.874, 836.632
571.192, 794.491
572.511, 842.410
573.829, 780.419
575.147, 688.526
576.464, 676.719
577.782, 597.457
579.099, 583.376
580.416, 482.048
581.733, 490.576
583.050, 439.267
584.366, 428.648
585.683, 357.884
586.999, 307.957
588.315, 317.249
589.630, 196.214
590.946, 166.194
592.261, 205.639
593.576, 194.722
594.891, 234.370
596.206, 163.511
597.520, 243.132
598.834, 342.997
600.148, 232.616
601.462, 221.965
602.776, 161.377
604.089, 120.744
605.402, 205.939
606.715, 115.400
608.028, 196.446
609.341, 28.061
610.653, 117.708
611.965, 32.278
613.277, 117.475
614.589, 27.154
615.901, 2.107
617.212, 12.065
618.523, 97.208
619.834, 52.562
621.145, 97.076
622.456, 44.469
623.766, 64.317
625.076, 34.428
626.386, 91.380
627.696, 68.710
629.006, 27.987
630.315, 57.626
631.624, 90.965
632.933, 91.430
634.242, 45.636
635.551, 85.215
636.859, 13.015
638.167, 46.092
639.475, 39.231
640.783, 93.540
642.090, 23.388
643.398, 92.583
644.705, 86.507
646.012, 5.767
647.318, 55.405
648.625, 4.005
649.931, 104.716
651.237, 114.629
652.543, 122.543
653.849, 47.320
655.155, 16.174
656.460, 45.463
657.765, 84.591
659.070, 83.419
660.375, 82.528
661.679, 141.236
662.984, 40.037
664.288, 88.826
665.592, 58.357
666.895, 117.514
668.199, 57.274
669.502, 126.025
670.805, 14.845
672.108, 35.883
673.411, 252.819
674.713, 111.514
676.016, 170.230
677.318, 152.411
678.620, 261.350
679.921, 152.245
681.223, 211.155
682.524, 129.865
683.825, 238.707
685.126, 197.436
686.427, 326.072
687.727, 304.865
689.028, 463.714
690.328, 332.370
691.628, 501.127
692.927, 450.066
694.227, 558.898
695.526, 677.967
696.825, 756.875
698.124, 745.884
699.423, 734.543
700.721, 683.208
702.020, 693.955
703.318, 675.076
704.616, 659.480
705.913, 718.159
707.211, 636.839
708.508, 765.917
709.805, 664.602
711.102, 673.287
712.399, 531.974
713.695, 510.736
714.992, 629.421
716.288, 388.381
717.584, 657.064
718.879, 446.054
720.175, 604.732
721.470, 434.207
722.765, 582.871
724.060, 521.527
725.355, 390.479
726.649, 549.120
727.944, 514.102
729.238, 352.865
730.532, 481.721
731.825, 210.323
733.119, 399.147
734.412, 187.853
735.705, 96.421
736.998, 244.975
738.291, 133.517
739.584, 12.045
740.876, 40.553
742.168, 0.808
743.460, 57.950
744.752, 206.724
746.043, 5.443
747.334, 53.950
748.626, 212.499
749.916, 20.871
751.207, 149.250
752.498, 37.586
753.788, 15.927
755.078, 44.433
756.368, 112.704
757.658, 100.959
758.947, 113.915
760.237, 82.527
761.526, 95.681
762.815, 6.163
764.104, 15.226
765.392, 62.619
766.680, 20.535
767.969, 37.437
769.257, 55.315
770.544, 3.191
771.832, 20.483
773.119, 147.613
774.406, 15.462
775.693, 51.704
776.980, 130.624
778.267, 15.547
779.553, 21.408
780.839, 42.195
782.125, 12.179
783.411, 99.553
784.697, 26.846
785.982, 11.687
787.267, 32.624
788.552, 113.219
789.837, 113.837
791.122, 31.346
792.406, 115.143
793.690, 47.941
794.974, 81.118
796.258, 125.845
797.542, 92.500
798.825, 60.320
800.108, 76.510
801.391, 22.985
802.674, 0.353
803.957, 67.685
805.239, 40.173
806.522, 42.985
807.804, 8.427
809.085, 154.900
810.367, 31.230
811.649, 67.665
812.930, 244.248
814.211, 90.812
815.492, 147.356
816.772, 224.131
818.053, 200.469
819.333, 16.997
820.613, 43.375
821.893, 9.982
823.173, 146.313
824.452, 42.917
825.732, 78.543
827.011, 153.405
828.290, 220.045
829.568, 126.523
830.847, 36.869
832.125, 69.689
833.403, 13.771
834.681, 72.732
835.959, 119.216
837.236, 85.608
838.514, 110.777
839.791, 148.488
841.068, 94.902
842.345, 81.300
843.621, 127.678
844.898, 104.039
846.174, 60.391
847.450, 86.722
848.726, 33.036
850.001, 69.335
851.277, 45.614
852.552, 151.876
853.827, 178.119
855.102, 154.349
856.376, 225.374
857.651, 66.763
858.925, 232.964
860.199, 159.148
861.473, 35.323
862.746, 141.478
864.020, 277.616
865.293, 203.738
866.566, 109.857
867.839, 165.960
869.112, 62.064
870.384, 148.151
871.656, 54.222
872.928, 140.272
874.200, 16.305
875.472, 202.314
876.744, 128.307
878.015, 54.281
879.286, 280.238
880.557, 83.820
881.828, 92.050
883.098, 67.905
884.369, 193.739
885.639, 69.564
886.909, 95.372
888.178, 141.161
889.448, 206.734
890.717, 180.595
891.987, 238.199
893.256, 133.269
894.524, 88.542
895.793, 53.036
897.061, 44.906
898.330, 54.017
899.598, 98.684
900.865, 83.922
902.133, 137.561
903.401, 115.076
904.668, 130.184
905.935, 115.288
907.202, 70.148
908.468, 145.251
909.735, 120.623
911.001, 125.934
912.267, 81.280
913.533, 100.794
914.799, 76.033
916.064, 30.317
917.330, 42.743
918.595, 197.761
919.860, 92.403
921.124, 217.293
922.389, 22.246
923.653, 156.134
924.918, 140.701
926.182, 76.015
927.445, 80.350
928.709, 115.241
929.972, 131.295
931.236, 15.621
932.499, 200.171
933.761, 191.535
935.024, 75.819
936.286, 50.891
937.549, 64.426
938.811, 68.451
940.073, 113.176
941.334, 70.350
942.596, 4.574
943.857, 117.430
945.118, 162.514
946.379, 223.553
947.640, 112.625
948.900, 107.729
950.161, 12.686
951.421, 152.904
952.681, 157.775
953.940, 72.259
955.200, 34.223
956.459, 120.579
957.719, 155.293
958.978, 286.510
960.236, 150.654
961.495, 345.794
962.753, 140.481
964.012, 185.314
965.270, 80.432
966.527, 275.346
967.785, 280.443
969.043, 205.533
970.300, 360.613
971.557, 324.933
972.814, 389.608
974.071, 203.665
975.327, 258.713
976.583, 373.363
977.840, 288.163
979.095, 333.199
980.351, 268.227
981.607, 343.221
982.862, 184.734
984.117, 369.477
985.372, 192.250
986.627, 306.990
987.882, 372.039
989.136, 156.821
990.390, 241.706
991.644, 306.672
992.898, 261.696
994.152, 376.584
995.405, 341.539
996.659, 407.891
997.912, 372.557
999.165, 397.464
1000.417, 573.298
1001.670, 587.981
1002.922, 582.817
1004.174, 417.742
1005.426, 573.222
1006.678, 428.961
1007.930, 493.919
1009.181, 503.700
1010.432, 498.889
1011.683, 524.830
1012.934, 559.968
1014.185, 505.173
1015.435, 520.440
1016.685, 458.242
1017.935, 464.861
1019.185, 582.865
1020.435, 487.937
1021.684, 723.055
1022.934, 797.800
1024.183, 852.661
1025.432, 906.869
1026.680, 891.775
1027.929, 1116.826
1029.177, 971.972
1030.425, 1197.062
1031.673, 1305.615
1032.921, 1580.991
1034.169, 2285.536
1035.416, 2952.077
1036.663, 2936.955
1037.911, 3140.118
1039.157, 2979.481
1040.404, 2834.834
1041.650, 2320.002
1042.897, 1985.233
1044.143, 1650.573
1045.389, 1395.501
1046.634, 1049.945
1047.880, 1134.746
1049.125, 749.823
1050.371, 944.455
1051.615, 799.293
1052.860, 624.480
1054.105, 719.372
1055.349, 524.521
1056.593, 669.838
1057.837, 534.865
1059.081, 530.048
1060.325, 505.418
1061.568, 430.519
1062.812, 545.453
1064.055, 620.061
1065.298, 434.768
1066.540, 366.740
1067.783, 491.117
1069.025, 496.408
1070.267, 480.979
1071.509, 496.322
1072.751, 533.961
1073.993, 698.590
1075.234, 693.678
1076.475, 618.152
1077.716, 532.643
1078.957, 718.133
1080.198, 652.814
1081.438, 687.141
1082.679, 572.467
1083.919, 657.289
1085.159, 561.881
1086.398, 686.404
1087.638, 657.383
1088.877, 602.645
1090.116, 848.775
1091.355, 503.484
1092.594, 738.590
1093.833, 593.352
1095.071, 508.102
1096.309, 573.547
1097.547, 608.316
1098.785, 513.373
1100.023, 428.289
1101.260, 503.041
1102.498, 479.033
1103.735, 583.768
1104.972, 568.141
1106.208, 527.680
1107.445, 408.164
1108.681, 403.172
1109.918, 517.877
1111.154, 462.570
1112.389, 557.615
1113.625, 402.434
1114.860, 397.088
1116.096, 441.732
1117.331, 436.365
1118.566, 520.980
1119.800, 315.584
1121.035, 260.176
1122.269, 515.041
1123.503, 259.613
1124.737, 404.277
1125.971, 209.430
1127.205, 293.961
1128.438, 119.242
1129.671, 364.383
1130.904, 158.871
1132.137, 154.465
1133.370, 279.232
1134.602, 163.699
1135.834, 89.232
1137.066, 163.670
1138.298, 118.711
1139.530, 223.992
1140.762, 68.385
1141.993, 100.203
1143.224, 294.582
1144.455, 29.770
1145.686, 285.490
1146.917, 99.783
1148.147, 25.582
1149.377, 199.447
1150.607, 73.910
1151.837, 328.859
1153.067, 3.664
1154.296, 12.014
1155.526, 255.658
1156.755, 80.211
1157.984, 93.857
1159.213, 21.029
1160.441, 112.986
1161.670, 87.223
1162.898, 71.480
1164.126, 43.582
1165.354, 5.615
1166.581, 65.006
1167.809, 49.111
1169.036, 104.357
1170.263, 118.729
1171.490, 167.670
1172.717, 127.887
1173.943, 152.117
1175.170, 116.449
1176.396, 20.264
1177.622, 103.928
1178.848, 147.697
1180.073, 1.314
1181.299, 214.918
1182.524, 21.514
1183.749, 92.021
1184.974, 286.037
1186.199, 50.174
1187.423, 143.566
1188.648, 81.418
1189.872, 65.115
1191.096, 38.881
1192.320, 104.949
1193.543, 208.502
1194.767, 92.656
1195.990, 38.895
1197.213, 212.115
1198.436, 126.424
1199.659, 79.918
1200.881, 143.098
1202.104, 86.633
1203.326, 39.719
1204.548, 62.877
1205.770, 76.219
1206.991, 29.221
1208.213, 92.559
1209.434, 93.367
1210.655, 219.598
1211.876, 155.016
1213.096, 167.873
1214.317, 210.789
1215.537, 53.682
1216.757, 356.467
1217.977, 39.779
1219.197, 37.309
1220.417, 295.363
1221.636, 98.670
1222.855, 211.625
1224.074, 334.475
1225.293, 29.252
1226.512, 322.844
1227.731, 305.725
1228.949, 69.439
1230.167, 192.029
1231.385, 254.516
1232.603, 327.355
1233.820, 109.725
1235.038, 106.721
1236.255, 19.641
1237.472, 281.930
1238.689, 44.555
1239.906, 356.803
1241.122, 279.268
1242.338, 91.465
1243.555, 343.633
1244.771, 185.828
1245.986, 157.951
1247.202, 310.051
1248.417, 32.443
1249.633, 424.492
1250.848, 26.523
1252.063, 118.732
1253.277, 310.717
1254.492, 192.932
1255.706, 305.926
1256.920, 417.826
1258.134, 179.775
1259.348, 231.623
1260.562, 313.443
1261.775, 276.186
1262.988, 287.914
1264.201, 279.611
1265.414, 311.373
1266.627, 273.074
1267.839, 204.840
1269.052, 416.943
1270.264, 248.424
1271.476, 129.879
1272.688, 351.543
1273.899, 92.934
1275.111, 125.326
1276.322, 436.639
1277.533, 57.920
1278.744, 209.438
1279.955, 470.660
1281.165, 61.977
1282.376, 363.027
1283.586, 134.164
1284.796, 85.309
1286.006, 306.816
1287.215, 72.406
1288.425, 278.555
1289.634, 49.432
1290.843, 78.779
1292.052, 319.594
1293.261, 200.240
1294.469, 99.748
1295.678, 230.918
1296.886, 111.328
1298.094, 141.969
1299.302, 252.012
1300.509, 168.238
1301.717, 402.246
1302.924, 317.514
1304.131, 67.588
1305.338, 356.430
1306.545, 226.412
1307.752, 216.131
1308.958, 75.742
1310.164, 252.771
1311.370, 122.027
1312.576, 207.611
1313.782, 36.971
1314.987, 136.822
1316.193, 26.385
1317.398, 276.088
1318.603, 155.586
1319.807, 125.145
1321.012, 244.500
1322.216, 273.416
1323.421, 242.641
1324.625, 304.188
1325.829, 276.838
1327.032, 280.076
1328.236, 277.645
1329.439, 156.594
1330.642, 205.846
1331.845, 201.445
1333.048, 29.527
1334.251, 199.164
1335.453, 179.936
1336.656, 1.641
1337.858, 216.992
1339.060, 85.924
1340.261, 5.586
1341.463, 312.613
1342.664, 61.408
1343.866, 199.895
1345.067, 268.145
1346.267, 176.625
1347.468, 334.826
1348.669, 253.059
1349.869, 201.092
1351.069, 519.146
1352.269, 186.969
1353.469, 55.023
1354.668, 353.045
1355.868, 1.482
1357.067, 429.688
1358.266, 257.848
1359.465, 256.133
1360.664, 493.758
1361.862, 141.994
1363.061, 229.508
1364.259, 364.289
1365.457, 112.449
1366.655, 190.121
1367.852, 208.240
1369.050, 153.658
1370.247, 63.547
1371.444, 184.289
1372.641, 52.332
1373.838, 239.727
1375.035, 258.336
1376.231, 124.107
1377.427, 322.869
1378.623, 191.174
1379.819, 127.006
1381.015, 276.133
1382.211, 186.211
1383.406, 385.541
1384.601, 214.783
1385.796, 363.422
1386.991, 421.848
1388.185, 261.049
1389.380, 290.521
1390.574, 339.871
1391.768, 199.410
1392.962, 279.064
1394.156, 438.676
1395.350, 227.926
1396.543, 567.332
1397.736, 216.115
1398.929, 73.914
1400.122, 551.990
1401.315, 260.965
1402.507, 378.953
1403.700, 406.373
1404.892, 76.420
1406.084, 423.812
1407.276, 401.627
1408.467, 249.145
1409.659, 256.822
1410.850, 234.711
1412.041, 115.875
1413.232, 323.121
1414.423, 331.418
1415.614, 198.285
1416.804, 465.777
1417.994, 61.951
1419.184, 417.330
1420.374, 365.047
1421.564, 192.350
1422.753, 400.494
1423.943, 228.865
1425.132, 297.234
1426.321, 464.373
1427.510, 235.508
1428.698, 142.643
1429.887, 376.195
1431.075, 208.236
1432.263, 434.521
1433.451, 421.965
1434.639, 279.277
1435.827, 496.580
1437.014, 233.930
1438.201, 139.852
1439.388, 503.357
1440.575, 300.943
1441.762, 477.791
1442.949, 475.303
1444.135, 301.307
1445.321, 695.650
1446.507, 450.340
1447.693, 275.033
1448.879, 541.566
1450.064, 379.080
1451.250, 264.246
1452.435, 479.762
1453.620, 295.391
1454.805, 541.320
1455.989, 567.234
1457.174, 102.309
1458.358, 487.471
1459.542, 372.348
1460.726, 265.174
1461.910, 610.172
1463.093, 472.879
1464.277, 457.943
1465.460, 602.496
1466.643, 295.535
1467.826, 330.555
1469.009, 824.789
1470.191, 196.697
1471.373, 480.566
1472.556, 344.672
1473.738, 238.928
1474.919, 801.531
1476.101, 385.234
1477.283, 30.617
1478.464, 733.342
1479.645, 225.342
1480.826, 388.986
1482.007, 532.406
1483.187, 235.979
1484.368, 409.811
1485.548, 404.668
1486.728, 169.980
1487.908, 385.258
1489.088, 429.098
1490.268, 74.279
1491.447, 449.557
1492.626, 504.943
1493.805, 240.412
1494.984, 435.973
1496.163, 311.766
1497.341, 337.717
1498.520, 263.930
1499.698, 295.408
1500.876, 341.344
1502.054, 237.555
1503.232, 194.027
1504.409, 510.635
1505.586, 405.012
1506.763, 271.869
1507.940, 418.896
1509.117, 166.068
1510.294, 444.256
1511.470, 263.877
1512.647, 15.764
1513.823, 376.021
1514.999, 379.469
1516.174, 75.123
1517.350, 154.338
1518.526, 56.076
1519.701, 0.000
##END=



