##NAMES=Olivenite
##RRUFFID=R040181
##IDEAL CHEMISTRY=Cu^2+^_2_As^5+^O_4_(OH)
##LOCALITY=Majuba Hill, Pershing County, Nevada, USA
##OWNER=RRUFF
##SOURCE=University of Arizona Mineral Museum
##DESCRIPTION=Greenish blue prismatic, untwinned. Structure for this sample reported in Li et al (2008).
##STATUS=The identification of this mineral has been confirmed by X-ray diffraction and chemical analysis
##URL=rruff.info/R040181
##MEASURED CHEMISTRY=(Cu_0.98_[box]_0.02_)_2_(As_0.90_P_0.10_O_4_)(OH)_0.92_
##PIN_ID=S00117
##ORIENTATION=Laser parallel to (-1 0 -1). Fiducial mark perpendicular to laser is parallel to -b [0 -1 0]
52.866, 0.000
54.266, 10.228
55.666, 44.776
57.065, 59.186
58.464, 89.201
59.863, 118.203
61.262, 100.284
62.661, 33.649
64.059, 1.842
65.458, 19.393
66.856, 43.299
68.253, 6.099
69.651, 71.010
71.048, 155.859
72.445, 348.300
73.842, 493.209
75.239, 719.471
76.635, 992.981
78.031, 1370.639
79.427, 1677.358
80.823, 2042.060
82.218, 2432.676
83.614, 2746.145
85.009, 2966.414
86.404, 3071.438
87.798, 3013.178
89.193, 3017.599
90.587, 2910.669
91.981, 2684.360
93.375, 2492.645
94.768, 2251.496
96.161, 1999.878
97.554, 1776.743
98.947, 1658.060
100.340, 1445.805
101.732, 1353.952
103.124, 1253.479
104.516, 1208.370
105.908, 1244.608
107.300, 1333.179
108.691, 1264.072
110.082, 1313.276
111.473, 1228.782
112.864, 1257.581
114.254, 1208.666
115.644, 1218.030
117.034, 1239.670
118.424, 1207.587
119.813, 1138.779
121.203, 1161.245
122.592, 1106.982
123.981, 1089.983
125.369, 1171.242
126.758, 1185.752
128.146, 1284.508
129.534, 1332.504
130.922, 1422.734
132.309, 1541.193
133.696, 1661.875
135.083, 1835.776
136.470, 2095.844
137.857, 2345.938
139.243, 2836.062
140.630, 3437.215
142.016, 4210.433
143.401, 5214.431
144.787, 6417.173
146.172, 7765.715
147.557, 9378.341
148.942, 11206.051
150.327, 13139.850
151.711, 15147.747
153.096, 16581.738
154.480, 17971.838
155.863, 18266.037
157.247, 18389.344
158.630, 17881.758
160.013, 16622.283
161.396, 14729.919
162.779, 12123.667
164.161, 9919.533
165.544, 7879.511
166.926, 6231.604
168.308, 4980.815
169.689, 4140.143
171.070, 3411.590
172.452, 2912.154
173.833, 2526.837
175.213, 2197.639
176.594, 1967.559
177.974, 1700.613
179.354, 1472.826
180.734, 1249.237
182.114, 1053.848
183.493, 911.637
184.872, 787.575
186.251, 642.677
187.630, 610.965
189.008, 557.396
190.387, 517.958
191.765, 469.629
193.143, 435.401
194.520, 463.272
195.898, 435.240
197.275, 494.304
198.652, 522.464
200.029, 630.718
201.405, 765.065
202.782, 921.504
204.158, 1168.033
205.534, 1461.652
206.909, 1833.358
208.285, 2254.306
209.660, 2651.031
211.035, 3253.995
212.410, 3823.041
213.784, 4408.170
215.159, 4920.378
216.533, 5437.665
217.907, 5917.032
219.281, 6036.646
220.654, 6039.308
222.027, 5872.024
223.400, 5592.768
224.773, 5146.530
226.146, 4722.179
227.518, 4266.091
228.891, 3759.135
230.263, 3389.344
231.634, 3122.608
233.006, 2860.504
234.377, 2648.054
235.748, 2445.583
237.119, 2227.479
238.490, 2003.106
239.860, 1822.869
241.231, 1650.665
242.601, 1458.607
243.970, 1211.692
245.340, 1063.912
246.709, 964.265
248.079, 770.744
249.448, 678.348
250.816, 576.071
252.185, 510.910
253.553, 456.862
254.921, 489.923
256.289, 427.091
257.657, 435.362
259.024, 399.735
260.391, 442.206
261.758, 493.774
263.125, 528.440
264.492, 614.206
265.858, 756.071
267.224, 862.032
268.590, 1074.089
269.956, 1269.240
271.321, 1639.484
272.687, 2093.829
274.052, 2590.269
275.416, 3130.813
276.781, 3811.450
278.146, 4609.176
279.510, 5064.992
280.874, 5657.905
282.237, 5931.898
283.601, 6169.983
284.964, 5883.164
286.327, 5529.423
287.690, 5151.766
289.053, 4443.190
290.416, 3806.689
291.778, 3307.277
293.140, 2738.946
294.502, 2408.699
295.863, 2045.532
297.225, 1933.438
298.586, 1732.417
299.947, 1690.962
301.308, 1655.156
302.668, 1585.776
304.029, 1599.823
305.389, 1695.869
306.749, 1715.873
308.108, 1723.268
309.468, 1755.214
310.827, 1806.329
312.186, 1754.707
313.545, 1664.433
314.903, 1642.873
316.262, 1489.763
317.620, 1355.517
318.978, 1298.416
320.336, 1155.800
321.693, 1073.126
323.051, 1020.920
324.408, 895.662
325.765, 902.868
327.121, 908.679
328.478, 914.018
329.834, 880.365
331.190, 922.756
332.546, 976.191
333.902, 976.668
335.257, 1122.187
336.612, 1186.745
337.967, 1289.342
339.322, 1466.978
340.677, 1575.651
342.031, 1621.362
343.385, 1740.108
344.739, 1806.890
346.093, 1829.706
347.446, 1839.555
348.799, 1771.436
350.153, 1660.349
351.505, 1449.292
352.858, 1250.266
354.210, 1049.268
355.563, 925.299
356.915, 753.358
358.267, 648.444
359.618, 608.557
360.969, 546.696
362.321, 487.861
363.672, 456.051
365.022, 447.266
366.373, 446.505
367.723, 435.767
369.073, 388.053
370.423, 383.361
371.773, 373.691
373.122, 290.043
374.471, 308.416
375.821, 311.810
377.169, 288.223
378.518, 302.657
379.866, 250.270
381.215, 186.580
382.563, 154.093
383.910, 119.647
385.258, 85.242
386.605, 48.878
387.952, 12.049
389.299, 1.271
390.646, 65.973
391.992, 82.189
393.339, 124.379
394.685, 97.555
396.031, 115.706
397.376, 73.848
398.722, 79.970
400.067, 13.076
401.412, 11.153
402.757, 31.799
404.101, 104.780
405.446, 186.789
406.790, 247.825
408.134, 372.889
409.478, 451.979
410.821, 645.094
412.165, 737.233
413.508, 895.397
414.851, 1101.583
416.193, 1259.792
417.536, 1377.024
418.878, 1614.276
420.220, 1701.669
421.562, 1795.962
422.904, 1656.645
424.245, 1734.769
425.586, 1692.927
426.927, 1561.399
428.268, 1525.563
429.609, 1296.140
430.949, 1187.742
432.289, 1073.473
433.629, 992.560
434.969, 843.418
436.309, 821.688
437.648, 627.979
438.987, 570.548
440.326, 476.527
441.665, 452.674
443.003, 395.649
444.342, 320.553
445.680, 281.318
447.018, 206.624
448.355, 185.153
449.693, 114.912
451.030, 80.531
452.367, 69.773
453.704, 77.062
455.041, 40.096
456.377, 5.056
457.713, 22.510
459.049, 10.458
460.385, 12.903
461.721, 27.632
463.056, 34.595
464.391, 63.164
465.726, 81.041
467.061, 77.238
468.395, 82.706
469.730, 69.663
471.064, 53.240
472.398, 54.010
473.731, 16.510
475.065, 30.521
476.398, 38.204
477.731, 72.560
479.064, 72.312
480.397, 41.508
481.729, 17.673
483.062, 25.103
484.394, 22.302
485.725, 29.193
487.057, 1.087
488.389, 17.880
489.720, 56.254
491.051, 33.697
492.382, 72.162
493.712, 58.327
495.043, 132.359
496.373, 139.289
497.703, 158.237
499.032, 160.165
500.362, 230.055
501.691, 225.930
503.020, 243.791
504.349, 257.637
505.678, 267.468
507.007, 243.284
508.335, 324.084
509.663, 321.868
510.991, 376.636
512.319, 427.388
513.646, 471.123
514.973, 529.841
516.300, 531.542
517.627, 586.226
518.954, 669.893
520.280, 702.541
521.607, 777.171
522.933, 744.784
524.259, 807.377
525.584, 771.953
526.910, 820.509
528.235, 819.046
529.560, 798.564
530.885, 794.062
532.209, 747.683
533.534, 663.999
534.858, 639.438
536.182, 610.856
537.506, 541.255
538.829, 565.632
540.152, 495.989
541.476, 503.325
542.799, 482.640
544.121, 487.933
545.444, 515.204
546.766, 546.454
548.088, 515.681
549.410, 601.865
550.732, 590.922
552.053, 638.512
553.375, 655.728
554.696, 640.791
556.017, 614.209
557.337, 667.889
558.658, 704.352
559.978, 673.227
561.298, 638.101
562.618, 658.071
563.938, 566.018
565.257, 510.939
566.576, 471.836
567.895, 461.707
569.214, 397.554
570.533, 394.375
571.851, 308.171
573.170, 210.942
574.488, 214.686
575.805, 193.404
577.123, 124.097
578.440, 72.763
579.758, 101.400
581.075, 61.011
582.391, 44.591
583.708, 18.136
585.024, 12.730
586.341, 20.089
587.657, 12.498
588.972, 12.859
590.288, 11.172
591.603, 26.565
592.918, 6.371
594.233, 44.236
595.548, 12.180
596.863, 0.187
598.177, 6.250
599.491, 40.373
600.805, 11.426
602.119, 19.826
603.432, 49.145
604.746, 6.452
606.059, 13.005
607.372, 0.526
608.685, 1.895
609.997, 39.741
611.309, 24.456
612.621, 36.241
613.933, 19.103
615.245, 11.034
616.557, 3.027
617.868, 14.081
619.179, 24.692
620.490, 37.946
621.801, 29.626
623.111, 26.271
624.421, 7.812
625.731, 15.158
627.041, 9.248
628.351, 3.870
629.660, 27.293
630.970, 18.350
632.279, 32.663
633.588, 19.282
634.896, 40.467
636.205, 22.190
637.513, 22.014
638.821, 5.248
640.129, 18.440
641.437, 12.910
642.744, 21.328
644.051, 6.299
645.358, 7.680
646.665, 22.548
647.972, 18.284
649.278, 16.271
650.584, 32.087
651.890, 42.878
653.196, 56.643
654.502, 48.384
655.807, 49.101
657.113, 89.794
658.418, 79.462
659.722, 93.108
661.027, 70.730
662.331, 81.058
663.636, 77.905
664.940, 95.458
666.244, 92.628
667.547, 80.496
668.851, 91.981
670.154, 101.444
671.457, 98.884
672.760, 100.302
674.062, 98.699
675.365, 118.073
676.667, 112.426
677.969, 114.910
679.271, 95.068
680.572, 112.356
681.874, 107.624
683.175, 108.871
684.476, 96.097
685.777, 150.302
687.077, 116.490
688.378, 116.660
689.678, 147.809
690.978, 99.942
692.278, 86.057
693.577, 102.153
694.877, 130.233
696.176, 158.300
697.475, 86.349
698.774, 137.382
700.072, 144.397
701.371, 133.395
702.669, 180.377
703.967, 123.341
705.265, 171.288
706.562, 204.217
707.860, 238.134
709.157, 248.887
710.454, 257.946
711.751, 252.842
713.047, 263.737
714.344, 260.621
715.640, 266.497
716.936, 305.358
718.232, 312.204
719.527, 337.035
720.823, 339.850
722.118, 353.650
723.413, 402.435
724.708, 392.206
726.002, 404.962
727.297, 408.704
728.591, 391.328
729.885, 394.147
731.179, 350.849
732.472, 326.537
733.766, 291.212
735.059, 268.194
736.352, 248.405
737.645, 227.673
738.937, 218.506
740.230, 199.313
741.522, 209.811
742.814, 212.624
744.106, 218.030
745.397, 175.415
746.689, 198.678
747.980, 165.588
749.271, 169.732
750.562, 180.469
751.853, 175.188
753.143, 198.634
754.433, 201.673
755.723, 218.547
757.013, 152.596
758.303, 190.719
759.592, 158.985
760.881, 221.710
762.170, 218.216
763.459, 171.493
764.748, 222.913
766.036, 190.711
767.325, 243.463
768.613, 202.472
769.901, 234.556
771.188, 221.146
772.476, 284.243
773.763, 299.649
775.050, 269.422
776.337, 360.423
777.624, 323.023
778.910, 397.918
780.196, 419.198
781.482, 435.946
782.768, 477.491
784.054, 528.019
785.339, 562.726
786.625, 615.148
787.910, 644.076
789.195, 726.667
790.479, 782.920
791.764, 831.549
793.048, 956.603
794.332, 1047.613
795.616, 1031.879
796.900, 1064.904
798.183, 1241.226
799.467, 1181.147
800.750, 1241.162
802.033, 1310.593
803.316, 1255.954
804.598, 1338.290
805.880, 1363.923
807.163, 1387.687
808.445, 1487.548
809.726, 1519.390
811.008, 1609.248
812.289, 1761.142
813.570, 1841.047
814.851, 2009.963
816.132, 2192.890
817.413, 2400.830
818.693, 2550.781
819.973, 2807.743
821.253, 2937.718
822.533, 3151.707
823.813, 3347.707
825.092, 3537.720
826.371, 3700.746
827.650, 3962.667
828.929, 4132.838
830.208, 4531.903
831.486, 4872.984
832.764, 5274.078
834.042, 5860.186
835.320, 6443.309
836.598, 7255.445
837.875, 8205.597
839.152, 9086.764
840.429, 10280.749
841.706, 11915.071
842.983, 13310.326
844.259, 15348.381
845.536, 18393.889
846.812, 21821.420
848.088, 26163.369
849.363, 30843.115
850.639, 36607.480
851.914, 43837.461
853.189, 49979.945
854.464, 55160.793
855.739, 58801.484
857.013, 58295.973
858.288, 54197.398
859.562, 47414.859
860.836, 40994.328
862.110, 34370.887
863.383, 27593.393
864.656, 22962.922
865.930, 18844.881
867.203, 15628.448
868.475, 13143.037
869.748, 11182.665
871.020, 9372.313
872.292, 8211.979
873.564, 7241.668
874.836, 6329.391
876.108, 5619.139
877.379, 4978.926
878.650, 4527.744
879.922, 4070.583
881.192, 3749.453
882.463, 3361.345
883.733, 3128.268
885.004, 2870.216
886.274, 2588.194
887.544, 2380.196
888.813, 2281.227
890.083, 2039.284
891.352, 1932.369
892.621, 1797.483
893.890, 1615.632
895.159, 1488.815
896.427, 1432.027
897.695, 1338.278
898.964, 1178.562
900.232, 1127.881
901.499, 1022.252
902.767, 958.660
904.034, 920.120
905.301, 804.619
906.568, 751.158
907.835, 727.744
909.102, 679.377
910.368, 621.046
911.634, 593.758
912.900, 584.521
914.166, 499.320
915.432, 512.160
916.697, 502.045
917.962, 402.968
919.227, 439.943
920.492, 401.963
921.757, 375.029
923.021, 363.138
924.285, 320.287
925.550, 310.474
926.813, 328.702
928.077, 290.974
929.341, 297.292
930.604, 314.656
931.867, 296.049
933.130, 266.480
934.393, 273.943
935.655, 254.442
936.918, 240.974
938.180, 272.546
939.442, 258.146
940.703, 259.771
941.965, 250.423
943.226, 264.100
944.488, 289.815
945.749, 273.556
947.009, 334.326
948.270, 335.132
949.530, 355.962
950.791, 379.816
952.051, 471.698
953.311, 489.605
954.570, 529.538
955.830, 606.494
957.089, 607.475
958.348, 638.478
959.607, 683.501
960.866, 657.544
962.124, 621.608
963.383, 570.692
964.641, 525.795
965.899, 447.918
967.156, 417.061
968.414, 314.223
969.671, 263.404
970.928, 237.605
972.185, 186.826
973.442, 137.067
974.699, 128.326
975.955, 101.325
977.211, 127.903
978.468, 84.219
979.723, 107.555
980.979, 101.908
982.234, 66.280
983.490, 57.671
984.745, 14.080
986.000, 12.507
987.254, 6.951
988.509, 9.414
989.763, 5.895
991.017, 45.607
992.271, 12.099
993.525, 4.574
994.779, 46.032
996.032, 20.480
997.285, 20.913
998.538, 39.333
999.791, 67.741
1001.044, 5.145
1002.296, 38.534
1003.548, 12.911
1004.800, 30.589
1006.052, 22.872
1007.304, 8.211
1008.555, 10.881
1009.807, 3.780
1011.058, 14.876
1012.309, 7.588
1013.559, 11.384
1014.810, 10.675
1016.060, 25.592
1017.310, 13.225
1018.560, 13.294
1019.810, 0.067
1021.060, 11.473
1022.309, 44.136
1023.558, 19.696
1024.807, 33.649
1026.056, 10.491
1027.305, 35.604
1028.553, 12.607
1029.801, 46.839
1031.049, 37.382
1032.297, 44.846
1033.545, 61.372
1034.793, 85.793
1036.040, 64.868
1037.287, 67.796
1038.534, 47.737
1039.781, 40.017
1041.027, 70.146
1042.274, 66.424
1043.520, 41.674
1044.766, 79.583
1046.012, 51.724
1047.257, 57.384
1048.503, 67.923
1049.748, 82.918
1050.993, 57.249
1052.238, 74.500
1053.483, 66.752
1054.727, 60.018
1055.971, 69.243
1057.216, 84.642
1058.459, 93.986
1059.703, 78.832
1060.947, 64.167
1062.190, 77.168
1063.433, 73.536
1064.676, 103.199
1065.919, 106.212
1067.162, 108.846
1068.404, 87.476
1069.646, 128.031
1070.888, 112.349
1072.130, 145.862
1073.372, 137.182
1074.613, 141.104
1075.855, 159.074
1077.096, 142.490
1078.337, 160.933
1079.578, 162.391
1080.818, 167.854
1082.059, 173.322
1083.299, 178.900
1084.539, 177.331
1085.779, 176.931
1087.018, 163.418
1088.258, 162.930
1089.497, 136.244
1090.736, 147.636
1091.975, 109.057
1093.213, 99.109
1094.452, 96.665
1095.690, 95.880
1096.928, 79.846
1098.166, 81.245
1099.404, 85.480
1100.642, 87.528
1101.879, 70.827
1103.116, 116.853
1104.353, 95.170
1105.590, 84.791
1106.827, 102.121
1108.063, 67.301
1109.299, 83.512
1110.536, 63.740
1111.771, 81.009
1113.007, 113.117
1114.243, 76.223
1115.478, 90.385
1116.713, 87.519
1117.948, 105.841
1119.183, 103.961
1120.418, 124.754
1121.652, 95.560
1122.886, 143.702
1124.120, 159.782
1125.354, 119.978
1126.588, 76.037
1127.821, 78.160
1129.055, 81.215
1130.288, 108.286
1131.521, 90.382
1132.753, 59.444
1133.986, 67.451
1135.218, 71.457
1136.450, 66.470
1137.682, 61.010
1138.914, 61.232
1140.146, 38.831
1141.377, 50.699
1142.609, 44.733
1143.840, 27.947
1145.071, 52.605
1146.301, 50.216
1147.532, 44.725
1148.762, 48.241
1149.992, 14.137
1151.222, 44.385
1152.452, 4.898
1153.682, 9.427
1154.911, 26.899
1156.140, 15.400
1157.369, 2.497
1158.598, 6.704
1159.827, 3.910
1161.055, 10.080
1162.284, 1.673
1163.512, 4.563
1164.740, 14.684
1165.967, 8.652
1167.195, 34.986
1168.422, 12.425
1169.650, 0.207
1170.877, 2.730
1172.103, 34.756
1173.330, 16.292
1174.557, 51.751
1175.783, 33.353
1177.009, 14.005
1178.235, 24.667
1179.461, 10.649
1180.686, 23.078
1181.912, 4.841
1183.137, 14.631
1184.362, 4.547
1185.587, 11.298
1186.811, 0.173
1188.036, 2.925
1189.260, 0.998
1190.484, 2.047
1191.708, 9.069
1192.932, 33.069
1194.155, 2.946
1195.378, 20.009
1196.602, 9.945
1197.825, 12.142
1199.047, 32.737
1200.270, 6.616
1201.492, 34.452
1202.715, 8.271
1203.937, 10.935
1205.159, 33.824
1206.380, 18.565
1207.602, 36.284
1208.823, 15.985
1210.044, 36.663
1211.265, 26.323
1212.486, 2.038
1213.707, 28.570
1214.927, 5.158
1216.147, 32.718
1217.367, 46.258
1218.587, 35.780
1219.807, 47.996
1221.027, 37.769
1222.246, 44.235
1223.465, 43.599
1224.684, 42.756
1225.903, 42.524
1227.121, 42.916
1228.340, 43.289
1229.558, 38.643
1230.776, 45.977
1231.994, 39.292
1233.212, 44.586
1234.429, 43.861
1235.646, 59.117
1236.864, 52.356
1238.081, 50.575
1239.297, 25.775
1240.514, 43.950
1241.730, 77.104
1242.947, 29.240
1244.163, 54.351
1245.378, 72.441
1246.594, 27.510
1247.810, 64.559
1249.025, 28.589
1250.240, 62.598
1251.455, 43.589
1252.670, 61.560
1253.885, 83.510
1255.099, 75.443
1256.313, 73.356
1257.527, 68.252
1258.741, 98.128
1259.955, 97.986
1261.168, 83.826
1262.382, 89.646
1263.595, 62.448
1264.808, 91.229
1266.021, 81.991
1267.233, 53.733
1268.446, 82.453
1269.658, 96.155
1270.870, 73.838
1272.082, 98.501
1273.294, 82.144
1274.505, 96.767
1275.716, 91.370
1276.928, 83.955
1278.139, 90.521
1279.349, 102.068
1280.560, 100.595
1281.770, 97.105
1282.981, 84.597
1284.191, 95.070
1285.401, 77.526
1286.610, 93.968
1287.820, 78.392
1289.029, 81.799
1290.239, 105.192
1291.448, 112.569
1292.656, 64.930
1293.865, 86.276
1295.073, 91.612
1296.282, 96.930
1297.490, 106.235
1298.698, 117.838
1299.906, 117.044
1301.113, 115.434
1302.320, 82.131
1303.528, 92.711
1304.735, 95.972
1305.942, 72.353
1307.148, 94.295
1308.355, 86.918
1309.561, 106.096
1310.767, 102.187
1311.973, 95.025
1313.179, 116.158
1314.384, 83.655
1315.590, 106.893
1316.795, 101.233
1318.000, 130.177
1319.205, 73.230
1320.410, 92.010
1321.614, 88.897
1322.819, 110.553
1324.023, 83.895
1325.227, 96.314
1326.431, 90.667
1327.634, 104.123
1328.838, 110.922
1330.041, 96.864
1331.244, 114.791
1332.447, 128.376
1333.650, 95.108
1334.852, 87.689
1336.055, 81.294
1337.257, 92.238
1338.459, 91.945
1339.661, 99.131
1340.862, 111.434
1342.064, 106.277
1343.265, 104.780
1344.466, 66.358
1345.667, 93.933
1346.868, 84.488
1348.068, 100.111
1349.269, 112.525
1350.469, 110.038
1351.669, 110.101
1352.869, 117.410
1354.069, 92.203
1355.268, 97.624
1356.468, 87.745
1357.667, 92.511
1358.866, 101.005
1360.065, 68.144
1361.263, 88.352
1362.462, 79.794
1363.660, 81.033
1364.858, 79.462
1366.056, 118.734
1367.254, 143.078
1368.451, 99.394
1369.649, 115.678
1370.846, 103.941
1372.043, 102.176
1373.240, 90.399
1374.436, 105.504
1375.633, 108.734
1376.829, 108.812
1378.025, 89.994
1379.221, 106.263
1380.417, 106.599
1381.613, 82.801
1382.808, 103.911
1384.003, 141.324
1385.199, 90.112
1386.393, 89.406
1387.588, 96.914
1388.783, 73.363
1389.977, 90.160
1391.171, 100.490
1392.365, 76.655
1393.559, 96.068
1394.753, 101.339
1395.946, 95.391
1397.140, 106.205
1398.333, 82.373
1399.526, 104.440
1400.719, 90.530
1401.911, 108.563
1403.104, 98.640
1404.296, 98.705
1405.488, 83.642
1406.680, 117.469
1407.872, 89.186
1409.063, 128.199
1410.255, 84.700
1411.446, 109.484
1412.637, 74.409
1413.828, 50.354
1415.018, 107.998
1416.209, 77.561
1417.399, 68.253
1418.589, 98.089
1419.779, 84.913
1420.969, 70.706
1422.159, 90.611
1423.348, 96.401
1424.537, 108.376
1425.726, 82.351
1426.915, 94.381
1428.104, 62.430
1429.293, 49.498
1430.481, 75.576
1431.669, 74.665
1432.857, 86.752
1434.045, 103.844
1435.233, 103.927
1436.420, 73.038
1437.608, 53.165
1438.795, 79.299
1439.982, 61.432
1441.169, 99.563
1442.355, 53.711
1443.542, 75.870
1444.728, 46.023
1445.914, 49.169
1447.100, 94.308
1448.286, 58.441
1449.472, 84.570
1450.657, 86.696
1451.842, 33.821
1453.027, 72.939
1454.212, 43.052
1455.397, 56.180
1456.581, 28.311
1457.766, 66.462
1458.950, 54.664
1460.134, 53.630
1461.318, 52.898
1462.501, 54.044
1463.685, 45.192
1464.868, 44.251
1466.051, 34.498
1467.234, 34.668
1468.417, 32.857
1469.600, 26.058
1470.782, 32.280
1471.965, 39.525
1473.147, 15.789
1474.329, 31.070
1475.510, 29.368
1476.692, 47.678
1477.873, 23.998
1479.055, 21.329
1480.236, 21.671
1481.416, 45.023
1482.597, 21.386
1483.778, 23.759
1484.958, 35.143
1486.138, 16.539
1487.318, 19.949
1488.498, 12.375
1489.678, 0.818
1490.857, 13.281
1492.037, 20.764
1493.216, 20.268
1494.395, 17.797
1495.574, 37.354
1496.752, 44.939
1497.931, 32.553
1499.109, 31.197
1500.287, 7.130
1501.465, 37.575
1502.643, 14.313
1503.820, 19.088
1504.998, 32.903
1506.175, 31.763
1507.352, 2.418
1508.529, 20.363
1509.706, 16.365
1510.882, 38.428
1512.059, 34.153
1513.235, 11.304
1514.411, 31.066
1515.587, 16.780
1516.762, 27.873
1517.938, 19.243
1519.113, 6.714
1520.288, 0.472
1521.463, 9.595
1522.638, 4.682
1523.813, 0.000
##END=



