##NAMES=Olmiite
##RRUFFID=R050177
##IDEAL CHEMISTRY=CaMn^2+^SiO_3_(OH)_2_
##LOCALITY=N'Chwaning II mine, Kuruman, South Africa
##OWNER=RRUFF
##SOURCE=Marcus Origlieri
##DESCRIPTION=Gray etched crystals
##STATUS=The identification of this mineral has been confirmed by X-ray diffraction and chemical analysis
##URL=rruff.info/R050177
##MEASURED CHEMISTRY=Ca_1.00_(Mn_0.98_Ca_0.02_)(Si_1.00_O_3_OH)(OH)
56.365, 0.000
57.765, 68.068
59.164, 30.278
60.563, 10.813
61.962, 186.599
63.360, 77.929
64.758, 29.762
66.157, 3.977
67.554, 17.419
68.952, 0.808
70.349, 152.651
71.747, 251.874
73.144, 302.849
74.540, 392.802
75.937, 585.495
77.333, 716.789
78.729, 673.551
80.125, 505.463
81.521, 406.468
82.916, 407.671
84.311, 533.276
85.706, 684.238
87.101, 726.423
88.496, 684.829
89.890, 827.347
91.284, 1010.051
92.678, 1215.540
94.071, 1116.584
95.465, 1018.206
96.858, 964.948
98.251, 953.253
99.644, 971.557
101.036, 1012.108
102.428, 1120.822
103.820, 1222.261
105.212, 1384.446
106.604, 1697.231
107.995, 1997.521
109.387, 2137.171
110.777, 2264.232
112.168, 2397.479
113.559, 2918.342
114.949, 3907.696
116.339, 5596.569
117.729, 6607.995
119.119, 5908.003
120.508, 4192.261
121.897, 2677.801
123.286, 1711.956
124.675, 1227.838
126.063, 952.767
127.452, 795.331
128.840, 856.357
130.228, 696.038
131.615, 629.477
133.003, 584.270
134.390, 447.535
135.777, 305.625
137.164, 210.548
138.550, 173.900
139.937, 179.957
141.323, 189.580
142.709, 197.167
144.094, 272.716
145.480, 268.207
146.865, 371.652
148.250, 470.070
149.635, 557.460
151.019, 446.825
152.403, 487.163
153.788, 335.477
155.171, 224.682
156.555, 252.250
157.939, 237.421
159.322, 308.156
160.705, 483.053
162.088, 643.215
163.470, 716.653
164.853, 791.898
166.235, 726.563
167.617, 642.262
168.998, 545.688
170.380, 508.681
171.761, 511.979
173.142, 521.283
174.523, 612.588
175.904, 735.892
177.284, 819.193
178.664, 766.492
180.044, 607.788
181.424, 437.074
182.803, 332.352
184.183, 159.624
185.562, 47.891
186.940, 64.847
188.319, 45.592
189.698, 39.345
191.076, 27.890
192.454, 56.109
193.831, 97.304
195.209, 200.474
196.586, 212.616
197.963, 411.732
199.340, 515.822
200.717, 767.885
202.093, 949.923
203.470, 1153.925
204.846, 1366.825
206.221, 1569.553
207.597, 1706.181
208.972, 1749.754
210.347, 1685.292
211.722, 1463.812
213.097, 1339.312
214.472, 1343.792
215.846, 1263.253
217.220, 1229.693
218.594, 1203.113
219.967, 1242.514
221.341, 1412.894
222.714, 1699.441
224.087, 2025.781
225.460, 2419.897
226.832, 2774.746
228.204, 3154.481
229.577, 3109.214
230.948, 3136.833
232.320, 2794.889
233.692, 2491.393
235.063, 2156.939
236.434, 1855.715
237.805, 1582.490
239.175, 1393.259
240.545, 1326.023
241.916, 1234.786
243.286, 1275.535
244.655, 1170.261
246.025, 1101.964
247.394, 960.645
248.763, 715.302
250.132, 573.932
251.501, 446.531
252.869, 320.099
254.237, 199.631
255.605, 101.116
256.973, 23.547
258.340, 23.087
259.708, 71.793
261.075, 124.579
262.442, 136.458
263.808, 160.385
265.175, 159.687
266.541, 150.742
267.907, 143.036
269.273, 88.427
270.639, 89.899
272.004, 33.447
273.369, 2.436
274.734, 29.257
276.099, 74.508
277.463, 148.698
278.828, 192.827
280.192, 277.906
281.556, 403.931
282.919, 423.904
284.283, 509.829
285.646, 679.688
287.009, 692.384
288.372, 730.893
289.734, 812.317
291.097, 805.692
292.459, 780.041
293.821, 850.371
295.183, 899.682
296.544, 885.974
297.905, 936.257
299.266, 844.526
300.627, 859.781
301.988, 735.896
303.348, 658.833
304.709, 628.765
306.069, 629.701
307.428, 567.641
308.788, 578.776
310.147, 639.886
311.507, 704.980
312.865, 734.062
314.224, 917.121
315.583, 1010.151
316.941, 1196.152
318.299, 1422.141
319.657, 1705.940
321.015, 2045.800
322.372, 2465.464
323.729, 3077.129
325.086, 3687.590
326.443, 4375.844
327.800, 5359.931
329.156, 6245.901
330.512, 7596.804
331.868, 8688.668
333.224, 9817.509
334.579, 10775.326
335.935, 11224.125
337.290, 10659.914
338.645, 10120.689
339.999, 9144.450
341.354, 8087.195
342.708, 6973.919
344.062, 6054.627
345.416, 5165.314
346.769, 4358.578
348.123, 3690.824
349.476, 3156.508
350.829, 2669.375
352.182, 2287.457
353.534, 1976.937
354.887, 1774.103
356.239, 1601.917
357.591, 1486.373
358.942, 1387.826
360.294, 1284.365
361.645, 1277.745
362.996, 1252.166
364.347, 1236.566
365.698, 1272.946
367.048, 1303.304
368.398, 1311.642
369.748, 1443.960
371.098, 1528.258
372.448, 1576.537
373.797, 1736.796
375.146, 1767.039
376.495, 1786.264
377.844, 1813.470
379.192, 1832.658
380.540, 1711.826
381.889, 1820.977
383.236, 1769.107
384.584, 1892.243
385.932, 1990.415
387.279, 2199.641
388.626, 2449.865
389.973, 2771.198
391.319, 3159.608
392.666, 3645.037
394.012, 4216.551
395.358, 4609.008
396.704, 5106.795
398.049, 5497.293
399.394, 5607.224
400.740, 5572.645
402.084, 5432.312
403.429, 5003.812
404.774, 4621.062
406.118, 4214.689
407.462, 3937.471
408.806, 3625.564
410.150, 3397.848
411.493, 3253.351
412.836, 3188.698
414.179, 3282.243
415.522, 3328.921
416.865, 3339.202
418.207, 3644.806
419.549, 3789.152
420.891, 3961.343
422.233, 4183.158
423.575, 4301.112
424.916, 4663.887
426.257, 4856.936
427.598, 5470.955
428.939, 6206.743
430.279, 6934.715
431.619, 8141.073
432.959, 8797.082
434.299, 9879.912
435.639, 10634.042
436.978, 11188.391
438.318, 10578.289
439.657, 9920.981
440.996, 8530.808
442.334, 7201.018
443.673, 5911.766
445.011, 4843.447
446.349, 3882.562
447.687, 3121.079
449.024, 2584.345
450.361, 2112.425
451.699, 1825.020
453.036, 1418.605
454.372, 1262.129
455.709, 1115.598
457.045, 988.977
458.381, 813.539
459.717, 823.409
461.053, 686.336
462.388, 675.322
463.724, 659.070
465.059, 703.410
466.394, 684.754
467.728, 721.891
469.063, 852.378
470.397, 957.925
471.731, 1042.093
473.065, 1179.797
474.398, 1336.698
475.732, 1519.774
477.065, 1643.779
478.398, 1560.256
479.731, 1540.583
481.063, 1457.410
482.396, 1322.026
483.728, 1285.711
485.060, 1203.165
486.391, 1177.233
487.723, 1135.189
489.054, 1109.422
490.385, 1137.029
491.716, 1072.696
493.047, 1087.865
494.377, 1050.390
495.708, 1055.851
497.038, 1097.941
498.368, 1195.996
499.697, 1176.589
501.027, 1209.726
502.356, 1420.943
503.685, 1604.851
505.014, 1939.893
506.342, 2282.903
507.671, 2704.882
508.999, 3324.835
510.327, 3938.768
511.655, 4276.708
512.982, 4220.647
514.310, 4021.587
515.637, 3610.508
516.964, 3118.410
518.291, 2658.288
519.617, 2169.138
520.944, 1916.961
522.270, 1620.752
523.596, 1336.512
524.921, 1125.239
526.247, 989.935
527.572, 891.599
528.897, 796.231
530.222, 681.832
531.547, 611.401
532.871, 523.938
534.196, 485.074
535.520, 382.044
536.844, 428.511
538.167, 298.312
539.491, 309.691
540.814, 287.645
542.137, 271.961
543.460, 251.777
544.783, 232.030
546.105, 208.328
547.427, 198.438
548.749, 161.593
550.071, 132.713
551.393, 117.755
552.714, 86.848
554.035, 90.862
555.356, 45.839
556.677, 15.778
557.998, 5.261
559.318, 14.511
560.638, 8.694
561.958, 38.957
563.278, 4.292
564.597, 31.318
565.917, 22.889
567.236, 12.418
568.555, 6.904
569.874, 25.342
571.192, 28.740
572.511, 19.102
573.829, 28.422
575.147, 18.708
576.464, 9.959
577.782, 49.176
579.099, 26.375
580.416, 5.564
581.733, 3.252
583.050, 28.937
584.366, 52.148
585.683, 55.348
586.999, 0.339
588.315, 49.948
589.630, 47.262
590.946, 10.412
592.261, 0.090
593.576, 10.219
594.891, 8.512
596.206, 4.217
597.520, 15.601
598.834, 16.765
600.148, 49.405
601.462, 36.549
602.776, 61.665
604.089, 13.754
605.402, 12.189
606.715, 25.177
608.028, 39.214
609.341, 48.520
610.653, 49.467
611.965, 33.687
613.277, 33.959
614.589, 33.698
615.901, 69.662
617.212, 43.912
618.523, 46.055
619.834, 64.176
621.145, 29.803
622.456, 8.478
623.766, 24.812
625.076, 23.924
626.386, 14.701
627.696, 1.484
629.006, 44.359
630.315, 54.254
631.624, 9.205
632.933, 11.812
634.242, 17.806
635.551, 56.223
636.859, 22.306
638.167, 32.425
639.475, 11.584
640.783, 32.774
642.090, 30.002
643.398, 24.269
644.705, 41.569
646.012, 63.910
647.318, 3.695
648.625, 40.720
649.931, 13.175
651.237, 1.344
652.543, 1.843
653.849, 35.678
655.155, 16.234
656.460, 28.814
657.765, 56.576
659.070, 1.950
660.375, 18.694
661.679, 60.639
662.984, 61.957
664.288, 41.260
665.592, 41.548
666.895, 44.755
668.199, 82.083
669.502, 47.330
670.805, 58.563
672.108, 37.240
673.411, 119.988
674.713, 37.181
676.016, 83.361
677.318, 130.528
678.620, 56.682
679.921, 89.825
681.223, 103.955
682.524, 16.074
683.825, 77.182
685.126, 39.280
686.427, 41.366
687.727, 39.443
689.028, 21.509
690.328, 26.434
691.628, 22.394
692.927, 0.367
694.227, 19.351
695.526, 6.654
696.825, 27.351
698.124, 20.631
699.423, 25.396
700.721, 38.543
702.020, 34.400
703.318, 91.161
704.616, 93.883
705.913, 108.453
707.211, 89.906
708.508, 145.301
709.805, 195.569
711.102, 239.859
712.399, 290.088
713.695, 366.960
714.992, 372.663
716.288, 432.837
717.584, 456.725
718.879, 472.742
720.175, 541.966
721.470, 526.779
722.765, 617.397
724.060, 564.666
725.355, 537.706
726.649, 546.489
727.944, 480.389
729.238, 476.049
730.532, 521.003
731.825, 355.721
733.119, 415.131
734.412, 365.410
735.705, 300.450
736.998, 334.755
738.291, 231.556
739.584, 257.740
740.876, 224.099
742.168, 241.485
743.460, 208.621
744.752, 162.010
746.043, 193.402
747.334, 187.011
748.626, 173.302
749.916, 162.204
751.207, 125.062
752.498, 123.572
753.788, 113.049
755.078, 129.842
756.368, 115.355
757.658, 170.831
758.947, 196.427
760.237, 200.765
761.526, 256.674
762.815, 229.809
764.104, 317.107
765.392, 364.865
766.680, 384.609
767.969, 438.393
769.257, 505.208
770.544, 607.091
771.832, 645.769
773.119, 758.118
774.406, 929.388
775.693, 1002.578
776.980, 1194.985
778.267, 1304.780
779.553, 1556.552
780.839, 1752.513
782.125, 2015.103
783.411, 2240.615
784.697, 2644.485
785.982, 2969.801
787.267, 3259.901
788.552, 3732.806
789.837, 3989.764
791.122, 4312.230
792.406, 4671.832
793.690, 4807.915
794.974, 5036.192
796.258, 5364.384
797.542, 5462.791
798.825, 5795.568
800.108, 6025.450
801.391, 6295.051
802.674, 6640.267
803.957, 7075.412
805.239, 7515.052
806.522, 8078.329
807.804, 8945.678
809.085, 9344.394
810.367, 10575.140
811.649, 11278.360
812.930, 11663.033
814.211, 11573.623
815.492, 11130.520
816.772, 10283.278
818.053, 9361.062
819.333, 8593.875
820.613, 7856.724
821.893, 7216.607
823.173, 7107.513
824.452, 6812.442
825.732, 6600.395
827.011, 6447.370
828.290, 6420.001
829.568, 6463.396
830.847, 6625.450
832.125, 6853.534
833.403, 7216.652
834.681, 7593.798
835.959, 8010.970
837.236, 8787.301
838.514, 9597.547
839.791, 10870.823
841.068, 12342.191
842.345, 14114.533
843.621, 16608.910
844.898, 19909.699
846.174, 23541.664
847.450, 28039.146
848.726, 33533.285
850.001, 38146.855
851.277, 42229.840
852.552, 44737.473
853.827, 45288.613
855.102, 42838.312
856.376, 38935.027
857.651, 34283.805
858.925, 29725.605
860.199, 25571.441
861.473, 21037.309
862.746, 17675.209
864.020, 14857.151
865.293, 12553.126
866.566, 10435.140
867.839, 8958.207
869.112, 7627.317
870.384, 6586.475
871.656, 5667.678
872.928, 4944.935
874.200, 4349.232
875.472, 3887.564
876.744, 3461.931
878.015, 3105.334
879.286, 2775.776
880.557, 2469.251
881.828, 2281.761
883.098, 2075.306
884.369, 1949.886
885.639, 1758.504
886.909, 1637.167
888.178, 1508.864
889.448, 1347.595
890.717, 1321.364
891.987, 1270.173
893.256, 1159.013
894.524, 1149.885
895.793, 1160.792
897.061, 1170.735
898.330, 1162.711
899.598, 1152.718
900.865, 1228.765
902.133, 1282.853
903.401, 1236.975
904.668, 1246.135
905.935, 1141.338
907.202, 1137.575
908.468, 1087.853
909.735, 1058.535
911.001, 958.505
912.267, 1045.880
913.533, 1004.288
914.799, 1036.739
916.064, 1069.236
917.330, 1105.781
918.595, 1119.374
919.860, 1011.016
921.124, 935.702
922.389, 779.431
923.653, 675.204
924.918, 591.031
926.182, 436.903
927.445, 335.822
928.709, 345.791
929.972, 302.802
931.236, 301.849
932.499, 327.198
933.761, 308.045
935.024, 396.201
936.286, 423.389
937.549, 468.619
938.811, 580.896
940.073, 681.206
941.334, 894.547
942.596, 972.920
943.857, 1136.337
945.118, 1474.791
946.379, 1721.281
947.640, 2139.806
948.900, 2508.369
950.161, 2928.968
951.421, 3318.022
952.681, 3408.209
953.940, 3410.457
955.200, 3314.119
956.459, 3021.749
957.719, 2521.750
958.978, 2188.582
960.236, 1851.391
961.495, 1520.805
962.753, 1258.595
964.012, 1046.089
965.270, 958.979
966.527, 871.148
967.785, 772.561
969.043, 641.470
970.300, 578.269
971.557, 569.146
972.814, 434.412
974.071, 438.559
975.327, 346.728
976.583, 359.918
977.840, 327.130
979.095, 277.361
980.351, 233.614
981.607, 172.387
982.862, 168.979
984.117, 104.446
985.372, 61.963
986.627, 100.451
987.882, 14.991
989.136, 79.193
990.390, 54.188
991.644, 8.366
992.898, 76.333
994.152, 23.417
995.405, 67.657
996.659, 5.375
997.912, 52.850
999.165, 75.706
1000.417, 117.775
1001.670, 95.556
1002.922, 75.372
1004.174, 159.616
1005.426, 63.616
1006.678, 173.306
1007.930, 124.139
1009.181, 122.738
1010.432, 148.126
1011.683, 138.978
1012.934, 173.330
1014.185, 211.262
1015.435, 204.348
1016.685, 236.062
1017.935, 240.384
1019.185, 237.017
1020.435, 248.089
1021.684, 277.884
1022.934, 214.292
1024.183, 189.314
1025.432, 151.325
1026.680, 186.424
1027.929, 113.499
1029.177, 155.544
1030.425, 125.630
1031.673, 166.717
1032.921, 153.854
1034.169, 157.861
1035.416, 176.090
1036.663, 155.767
1037.911, 190.606
1039.157, 169.566
1040.404, 159.044
1041.650, 193.191
1042.897, 162.613
1044.143, 228.249
1045.389, 145.792
1046.634, 138.832
1047.880, 148.956
1049.125, 72.137
1050.371, 53.208
1051.615, 101.008
1052.860, 100.225
1054.105, 55.846
1055.349, 88.228
1056.593, 58.499
1057.837, 83.704
1059.081, 66.887
1060.325, 111.313
1061.568, 112.920
1062.812, 68.276
1064.055, 106.890
1065.298, 159.331
1066.540, 31.752
1067.783, 107.973
1069.025, 37.035
1070.267, 65.555
1071.509, 100.547
1072.751, 83.690
1073.993, 110.076
1075.234, 136.298
1076.475, 107.531
1077.716, 107.728
1078.957, 119.951
1080.198, 113.331
1081.438, 149.750
1082.679, 163.098
1083.919, 144.600
1085.159, 196.662
1086.398, 155.854
1087.638, 145.013
1088.877, 127.064
1090.116, 114.422
1091.355, 97.151
1092.594, 73.287
1093.833, 52.444
1095.071, 42.289
1096.309, 3.805
1097.547, 36.912
1098.785, 13.047
1100.023, 37.730
1101.260, 37.504
1102.498, 15.465
1103.735, 6.399
1104.972, 41.644
1106.208, 28.544
1107.445, 75.793
1108.681, 21.938
1109.918, 49.171
1111.154, 70.274
1112.389, 47.489
1113.625, 17.764
1114.860, 39.149
1116.096, 5.633
1117.331, 14.127
1118.566, 10.819
1119.800, 61.377
1121.035, 34.108
1122.269, 32.304
1123.503, 149.751
1124.737, 262.171
1125.971, 210.405
1127.205, 99.714
1128.438, 46.971
1129.671, 16.842
1130.904, 5.434
1132.137, 41.478
1133.370, 10.769
1134.602, 15.608
1135.834, 54.949
1137.066, 16.010
1138.298, 4.971
1139.530, 1.798
1140.762, 20.630
1141.993, 25.599
1143.224, 42.839
1144.455, 33.358
1145.686, 28.321
1146.917, 1.432
1148.147, 3.698
1149.377, 28.946
1150.607, 29.379
1151.837, 15.139
1153.067, 1.661
1154.296, 8.293
1155.526, 6.771
1156.755, 4.893
1157.984, 0.571
1159.213, 58.763
1160.441, 23.090
1161.670, 6.392
1162.898, 35.856
1164.126, 17.028
1165.354, 9.909
1166.581, 1.917
1167.809, 4.245
1169.036, 20.870
1170.263, 33.753
1171.490, 65.512
1172.717, 72.594
1173.943, 55.483
1175.170, 65.406
1176.396, 76.198
1177.622, 70.038
1178.848, 73.533
1180.073, 65.048
1181.299, 51.677
1182.524, 31.297
1183.749, 13.475
1184.974, 35.566
1186.199, 122.862
1187.423, 52.031
1188.648, 83.169
1189.872, 136.326
1191.096, 94.407
1192.320, 54.354
1193.543, 118.421
1194.767, 100.368
1195.990, 88.763
1197.213, 117.387
1198.436, 49.383
1199.659, 86.304
1200.881, 59.226
1202.104, 33.164
1203.326, 84.047
1204.548, 96.059
1205.770, 102.922
1206.991, 75.644
1208.213, 66.314
1209.434, 83.108
1210.655, 67.927
1211.876, 37.630
1213.096, 81.368
1214.317, 102.005
1215.537, 140.579
1216.757, 78.023
1217.977, 158.612
1219.197, 123.099
1220.417, 90.642
1221.636, 108.184
1222.855, 108.223
1224.074, 116.611
1225.293, 111.989
1226.512, 97.722
1227.731, 95.466
1228.949, 102.359
1230.167, 91.068
1231.385, 153.161
1232.603, 133.493
1233.820, 120.827
1235.038, 154.648
1236.255, 104.965
1237.472, 81.594
1238.689, 142.361
1239.906, 135.691
1241.122, 210.205
1242.338, 102.481
1243.555, 148.672
1244.771, 139.945
1245.986, 128.760
1247.202, 124.597
1248.417, 147.566
1249.633, 185.091
1250.848, 159.893
1252.063, 129.045
1253.277, 196.552
1254.492, 156.542
1255.706, 171.410
1256.920, 131.923
1258.134, 140.784
1259.348, 144.321
1260.562, 163.636
1261.775, 176.912
1262.988, 174.217
1264.201, 214.773
1265.414, 176.536
1266.627, 202.150
1267.839, 157.371
1269.052, 144.801
1270.264, 146.947
1271.476, 187.181
1272.688, 164.238
1273.899, 172.254
1275.111, 184.417
1276.322, 153.756
1277.533, 192.163
1278.744, 139.958
1279.955, 74.454
1281.165, 104.091
1282.376, 156.574
1283.586, 163.542
1284.796, 109.479
1286.006, 105.144
1287.215, 123.365
1288.425, 174.010
1289.634, 173.615
1290.843, 125.827
1292.052, 104.378
1293.261, 123.244
1294.469, 133.947
1295.678, 120.013
1296.886, 141.805
1298.094, 132.604
1299.302, 102.083
1300.509, 122.898
1301.717, 146.586
1302.924, 137.608
1304.131, 122.551
1305.338, 117.280
1306.545, 84.427
1307.752, 113.718
1308.958, 136.910
1310.164, 120.467
1311.370, 175.308
1312.576, 159.500
1313.782, 88.663
1314.987, 136.732
1316.193, 130.189
1317.398, 78.223
1318.603, 97.015
1319.807, 88.724
1321.012, 101.493
1322.216, 159.041
1323.421, 87.672
1324.625, 141.258
1325.829, 104.559
1327.032, 97.880
1328.236, 191.383
1329.439, 198.050
1330.642, 137.580
1331.845, 158.919
1333.048, 155.769
1334.251, 141.944
1335.453, 150.603
1336.656, 172.955
1337.858, 133.854
1339.060, 152.868
1340.261, 119.596
1341.463, 126.367
1342.664, 111.037
1343.866, 117.094
1345.067, 106.717
1346.267, 93.116
1347.468, 92.216
1348.669, 71.413
1349.869, 83.612
1351.069, 96.781
1352.269, 97.773
1353.469, 74.401
1354.668, 71.221
1355.868, 67.551
1357.067, 61.624
1358.266, 67.203
1359.465, 69.375
1360.664, 79.189
1361.862, 57.476
1363.061, 61.954
1364.259, 5.763
1365.457, 48.987
1366.655, 18.300
1367.852, 5.766
1369.050, 46.750
1370.247, 2.033
1371.444, 21.852
1372.641, 13.608
1373.838, 18.367
1375.035, 50.902
1376.231, 30.807
1377.427, 27.480
1378.623, 59.995
1379.819, 22.616
1381.015, 10.182
1382.211, 29.484
1383.406, 13.739
1384.601, 5.745
1385.796, 24.693
1386.991, 95.848
1388.185, 74.028
1389.380, 24.596
1390.574, 64.844
1391.768, 43.371
1392.962, 82.642
1394.156, 124.854
1395.350, 6.279
1396.543, 15.866
1397.736, 65.372
1398.929, 81.506
1400.122, 49.695
1401.315, 81.805
1402.507, 63.844
1403.700, 118.814
1404.892, 116.471
1406.084, 62.322
1407.276, 101.447
1408.467, 75.116
1409.659, 84.837
1410.850, 80.164
1412.041, 64.618
1413.232, 110.161
1414.423, 78.366
1415.614, 109.883
1416.804, 109.135
1417.994, 68.991
1419.184, 129.262
1420.374, 150.993
1421.564, 82.064
1422.753, 134.927
1423.943, 101.639
1425.132, 115.781
1426.321, 82.610
1427.510, 128.280
1428.698, 80.060
1429.887, 119.267
1431.075, 158.439
1432.263, 124.728
1433.451, 98.744
1434.639, 71.454
1435.827, 135.007
1437.014, 116.321
1438.201, 90.227
1439.388, 140.288
1440.575, 91.193
1441.762, 92.636
1442.949, 139.927
1444.135, 127.446
1445.321, 94.477
1446.507, 154.317
1447.693, 75.062
1448.879, 79.866
1450.064, 131.020
1451.250, 105.216
1452.435, 94.177
1453.620, 107.651
1454.805, 126.208
1455.989, 78.082
1457.174, 112.078
1458.358, 99.332
1459.542, 44.884
1460.726, 91.755
1461.910, 73.028
1463.093, 52.872
1464.277, 100.268
1465.460, 59.147
1466.643, 57.877
1467.826, 147.589
1469.009, 41.054
1470.191, 84.347
1471.373, 87.747
1472.556, 68.814
1473.738, 73.923
1474.919, 54.178
1476.101, 42.281
1477.283, 107.140
1478.464, 93.646
1479.645, 9.990
1480.826, 51.664
1482.007, 96.203
1483.187, 47.285
1484.368, 124.523
1485.548, 39.767
1486.728, 30.600
1487.908, 7.226
1489.088, 119.206
1490.268, 109.671
1491.447, 104.798
1492.626, 91.476
1493.805, 38.749
1494.984, 66.977
1496.163, 92.765
1497.341, 27.497
1498.520, 34.395
1499.698, 94.916
1500.876, 0.308
1502.054, 69.522
1503.232, 60.497
1504.409, 152.255
1505.586, 115.838
1506.763, 114.637
1507.940, 83.744
1509.117, 9.168
1510.294, 75.632
1511.470, 25.342
1512.647, 97.005
1513.823, 90.977
1514.999, 65.528
1516.174, 61.881
1517.350, 63.273
1518.526, 36.992
1519.701, 53.383
1520.876, 9.820
1522.051, 5.295
1523.226, 50.025
1524.400, 0.104
1525.574, 0.000
##END=



