##NAMES=Rhodochrosite
##RRUFFID=R050019
##IDEAL CHEMISTRY=Mn^2+^CO_3_
##LOCALITY=Home Sweet Home mine, Colorado, USA
##OWNER=RRUFF
##SOURCE=Eugene Schlepp
##DESCRIPTION=Pink single crystal rhombs on quartz
##STATUS=The identification of this mineral has been confirmed by X-ray diffraction and chemical analysis
##URL=rruff.info/R050019
##MEASURED CHEMISTRY=Mn_1.00_CO_3_
##PIN_ID=L00297
##ORIENTATION=Laser parallel to a* (1 0 0). Fiducial mark perpendicular to laser is parallel to c [0 0 1]
107.868, 0.000
109.267, 18.001
110.665, 42.526
112.063, 19.168
113.461, 32.635
114.859, 58.435
116.256, 41.121
117.653, 37.397
119.050, 48.138
120.447, 37.221
121.843, 34.262
123.240, 69.786
124.636, 45.565
126.031, 58.557
127.427, 48.365
128.822, 39.656
130.217, 63.090
131.612, 20.651
133.006, 18.358
134.400, 7.740
135.794, 50.234
137.188, 47.364
138.581, 43.548
139.975, 65.780
141.368, 31.057
142.760, 64.380
144.153, 46.743
145.545, 4.853
146.937, 46.589
148.329, 60.071
149.720, 15.590
151.112, 18.143
152.503, 47.727
153.893, 44.341
155.284, 60.981
156.674, 29.647
158.064, 3.473
159.454, 38.455
160.843, 20.130
162.233, 56.829
163.622, 32.552
165.011, 79.018
166.399, 83.876
167.787, 80.624
169.175, 124.393
170.563, 153.184
171.951, 171.995
173.338, 246.826
174.725, 365.675
176.112, 486.548
177.499, 722.433
178.885, 1087.334
180.271, 1465.262
181.657, 1957.207
183.043, 2171.168
184.428, 2105.146
185.813, 1622.151
187.198, 1032.184
188.583, 722.238
189.967, 450.311
191.351, 371.389
192.735, 211.463
194.119, 162.536
195.502, 136.612
196.885, 68.691
198.268, 87.775
199.651, 44.863
201.033, 66.956
202.415, 30.055
203.797, 79.159
205.179, 20.276
206.561, 12.600
207.942, 9.530
209.323, 10.666
210.703, 14.185
212.084, 10.077
213.464, 10.925
214.844, 4.322
216.224, 10.503
217.603, 6.689
218.983, 11.881
220.362, 14.921
221.741, 6.718
223.119, 2.500
224.497, 23.723
225.875, 11.950
227.253, 8.183
228.631, 22.421
230.008, 16.663
231.385, 14.368
232.762, 14.636
234.139, 10.422
235.515, 3.691
236.891, 17.965
238.267, 9.242
239.643, 10.524
241.018, 48.809
242.393, 0.099
243.768, 50.391
245.143, 1.686
246.517, 48.986
247.891, 8.284
249.265, 82.584
250.639, 65.447
252.012, 43.750
253.386, 116.099
254.759, 72.545
256.131, 100.861
257.504, 102.183
258.876, 146.507
260.248, 130.250
261.620, 151.577
262.991, 214.100
264.363, 194.428
265.734, 232.200
267.104, 280.546
268.475, 289.631
269.845, 389.035
271.215, 397.400
272.585, 517.769
273.955, 609.655
275.324, 832.629
276.693, 1073.684
278.062, 1400.759
279.431, 2045.867
280.799, 2759.005
282.167, 3827.245
283.535, 5219.429
284.903, 6963.630
286.270, 8558.849
287.638, 9727.070
289.005, 10145.307
290.371, 9103.560
291.738, 7634.820
293.104, 5871.091
294.470, 4416.372
295.836, 3283.662
297.201, 2405.961
298.567, 1867.268
299.932, 1400.011
301.296, 1086.332
302.661, 931.660
304.025, 753.994
305.389, 656.347
306.753, 560.692
308.117, 476.998
309.480, 408.398
310.843, 377.681
312.206, 348.155
313.569, 321.525
314.931, 296.234
316.293, 250.276
317.655, 250.668
319.017, 224.054
320.378, 202.443
321.740, 202.835
323.101, 177.226
324.461, 175.615
325.822, 152.007
327.182, 153.402
328.542, 144.801
329.902, 114.195
331.261, 149.591
332.621, 116.991
333.980, 118.394
335.339, 101.589
336.697, 87.997
338.056, 88.408
339.414, 39.822
340.772, 88.238
342.129, 92.656
343.487, 50.076
344.844, 94.499
346.201, 77.925
347.557, 50.352
348.914, 48.781
350.270, 56.212
351.626, 32.645
352.982, 73.080
354.337, 91.516
355.693, 33.954
357.048, 40.393
358.402, 17.595
359.757, 53.040
361.111, 56.489
362.465, 31.939
363.819, 13.390
365.173, 42.843
366.526, 34.298
367.879, 44.756
369.232, 21.213
370.585, 13.326
371.937, 17.279
373.290, 56.742
374.642, 21.808
375.993, 40.273
377.345, 40.739
378.696, 10.206
380.047, 36.673
381.398, 39.142
382.748, 57.612
384.099, 45.643
385.449, 42.998
386.799, 52.424
388.148, 22.897
389.497, 25.370
390.847, 10.156
392.196, 9.316
393.544, 32.789
394.893, 31.263
396.241, 0.150
397.589, 24.324
398.936, 2.202
400.284, 29.273
401.631, 2.258
402.978, 44.733
404.325, 62.208
405.672, 21.681
407.018, 14.157
408.364, 7.367
409.710, 7.107
411.055, 4.581
412.401, 20.055
413.746, 20.473
415.091, 24.557
416.435, 59.024
417.780, 2.538
419.124, 32.005
420.468, 6.841
421.812, 29.623
423.155, 14.301
424.498, 12.187
425.842, 49.266
427.184, 0.719
428.527, 30.175
429.869, 10.625
431.211, 31.071
432.553, 3.516
433.895, 5.961
435.236, 52.406
436.577, 20.852
437.918, 2.949
439.259, 44.397
440.599, 29.846
441.940, 21.031
443.280, 1.481
444.619, 19.896
445.959, 19.346
447.298, 26.796
448.637, 25.246
449.976, 18.696
451.315, 39.145
452.653, 41.595
453.991, 29.383
455.329, 43.868
456.667, 17.317
458.004, 18.796
459.341, 23.244
460.678, 6.308
462.015, 44.134
463.352, 43.576
464.688, 42.193
466.024, 5.640
467.360, 30.086
468.695, 46.531
470.031, 12.976
471.366, 29.420
472.701, 14.137
474.035, 22.296
475.370, 21.728
476.704, 44.159
478.038, 6.590
479.372, 17.019
480.705, 27.448
482.038, 51.876
483.371, 12.305
484.704, 37.754
486.037, 18.180
487.369, 54.606
488.701, 11.030
490.033, 30.453
491.365, 49.875
492.696, 9.307
494.027, 17.727
495.358, 7.855
496.689, 43.559
498.019, 24.972
499.350, 12.384
500.680, 54.794
502.009, 12.203
503.339, 25.616
504.668, 44.027
505.997, 46.438
507.326, 68.881
508.655, 11.288
509.983, 52.702
511.311, 48.109
512.639, 24.638
513.967, 80.044
515.295, 35.449
516.622, 36.853
517.949, 6.115
519.276, 36.278
520.602, 57.081
521.929, 22.471
523.255, 42.876
524.581, 16.331
525.906, 37.846
527.232, 12.245
528.557, 87.687
529.882, 51.082
531.207, 1.146
532.531, 44.242
533.855, 12.629
535.179, 54.015
536.503, 36.402
537.827, 28.787
539.150, 59.171
540.473, 37.552
541.796, 45.963
543.119, 85.340
544.441, 11.719
545.764, 64.094
547.086, 19.467
548.407, 78.838
549.729, 36.206
551.050, 25.089
552.371, 41.453
553.692, 20.816
555.013, 9.177
556.333, 33.497
557.653, 45.852
558.973, 23.084
560.293, 0.566
561.612, 56.777
562.932, 28.118
564.251, 77.457
565.569, 54.793
566.888, 27.127
568.206, 34.075
569.524, 62.403
570.842, 31.730
572.160, 26.054
573.477, 1.746
574.795, 30.568
576.112, 12.879
577.428, 24.187
578.745, 19.507
580.061, 15.205
581.377, 5.653
582.693, 12.935
584.009, 27.496
585.324, 33.773
586.639, 24.992
587.954, 53.262
589.269, 34.514
590.583, 47.763
591.897, 91.006
593.212, 38.250
594.525, 52.543
595.839, 3.218
597.152, 32.992
598.465, 59.220
599.778, 4.555
601.091, 35.662
602.403, 8.206
603.716, 29.100
605.028, 45.300
606.339, 38.521
607.651, 81.716
608.962, 36.910
610.273, 54.141
611.584, 2.330
612.895, 15.567
614.205, 31.746
615.515, 16.929
616.825, 58.130
618.135, 54.307
619.444, 47.964
620.754, 104.159
622.063, 7.327
623.372, 66.078
624.680, 76.225
625.989, 58.384
627.297, 75.600
628.605, 48.754
629.912, 39.905
631.220, 41.943
632.527, 48.087
633.834, 44.724
635.141, 45.542
636.447, 42.821
637.754, 50.998
639.060, 43.127
640.366, 107.721
641.671, 21.865
642.977, 117.986
644.282, 29.189
645.587, 52.303
646.892, 96.451
648.196, 51.559
649.501, 24.701
650.805, 65.803
652.109, 36.906
653.412, 74.296
654.716, 49.397
656.019, 61.495
657.322, 35.590
658.625, 43.685
659.927, 89.050
661.230, 35.142
662.532, 56.282
663.834, 21.367
665.135, 44.448
666.437, 29.340
667.738, 51.388
669.039, 12.472
670.340, 36.052
671.640, 40.144
672.940, 52.254
674.241, 1.685
675.540, 64.610
676.840, 1.793
678.139, 64.841
679.439, 53.608
680.738, 21.720
682.036, 15.756
683.335, 37.854
684.633, 23.881
685.931, 64.919
687.229, 4.939
688.527, 37.461
689.824, 49.472
691.121, 73.484
692.418, 71.114
693.715, 37.188
695.012, 45.243
696.308, 94.235
697.604, 27.224
698.900, 62.209
700.195, 34.191
701.491, 103.166
702.786, 59.167
704.081, 50.138
705.376, 98.105
706.670, 72.069
707.964, 147.031
709.259, 72.265
710.552, 182.220
711.846, 241.058
713.139, 487.006
714.433, 933.951
715.726, 1652.892
717.018, 2808.391
718.311, 3354.326
719.603, 2681.257
720.895, 1614.184
722.187, 858.107
723.479, 535.030
724.770, 331.948
726.061, 199.884
727.352, 201.796
728.643, 119.704
729.934, 141.053
731.224, 87.959
732.514, 97.814
733.804, 72.712
735.094, 84.919
736.383, 78.848
737.672, 124.523
738.961, 48.360
740.250, 116.247
741.539, 29.131
742.827, 61.010
744.115, 70.887
745.403, 59.813
746.691, 63.685
747.978, 78.553
749.265, 17.465
750.552, 77.326
751.839, 33.552
753.126, 82.441
754.412, 46.293
755.698, 56.407
756.984, 54.253
758.270, 8.132
759.555, 57.971
760.840, 21.808
762.125, 31.959
763.410, 63.790
764.695, 17.618
765.979, 91.576
767.263, 14.059
768.547, 63.842
769.831, 74.978
771.114, 22.760
772.398, 75.586
773.681, 14.393
774.964, 22.198
776.246, 59.001
777.529, 19.374
778.811, 62.410
780.093, 86.456
781.375, 13.234
782.656, 54.138
783.937, 43.910
785.219, 69.679
786.499, 35.450
787.780, 4.219
789.060, 33.982
790.341, 4.744
791.621, 16.501
792.901, 76.255
794.180, 1.994
795.459, 21.750
796.739, 58.470
798.017, 7.209
799.296, 52.944
800.575, 17.677
801.853, 51.407
803.131, 17.134
804.409, 38.847
805.686, 54.384
806.964, 11.897
808.241, 69.908
809.518, 49.616
810.795, 30.322
812.071, 71.883
813.347, 13.868
814.623, 69.819
815.899, 15.503
817.175, 61.184
818.450, 109.828
819.726, 6.496
821.001, 43.166
822.275, 25.562
823.550, 1.899
824.824, 21.755
826.098, 16.607
827.372, 79.256
828.646, 67.271
829.920, 4.919
831.193, 73.259
832.466, 53.101
833.739, 9.506
835.011, 31.057
836.284, 10.545
837.556, 45.143
838.828, 22.696
840.100, 27.290
841.371, 35.505
842.642, 27.096
843.914, 21.499
845.184, 4.727
846.455, 6.853
847.726, 10.429
848.996, 26.003
850.266, 26.026
851.536, 24.114
852.805, 29.681
854.075, 14.245
855.344, 16.808
856.613, 63.370
857.881, 89.929
859.150, 36.487
860.418, 75.043
861.686, 0.404
862.954, 81.146
864.222, 47.693
865.489, 64.239
866.756, 62.783
868.023, 27.327
869.290, 3.869
870.557, 51.411
871.823, 39.950
873.089, 44.489
874.355, 56.026
875.621, 19.561
876.886, 95.095
878.152, 14.627
879.417, 46.158
880.682, 32.687
881.946, 18.214
883.211, 84.743
884.475, 24.273
885.739, 73.801
887.003, 34.328
888.266, 9.861
889.530, 58.392
890.793, 37.924
892.056, 45.456
893.318, 48.987
894.581, 16.505
895.843, 85.042
897.105, 4.579
898.367, 49.114
899.629, 48.648
900.890, 5.181
902.152, 47.662
903.413, 12.194
904.673, 7.728
905.934, 22.260
907.194, 31.793
908.454, 83.328
909.714, 51.862
910.974, 37.296
912.234, 40.833
913.493, 4.655
914.752, 34.880
916.011, 47.414
917.270, 1.093
918.528, 57.439
919.786, 59.917
921.044, 21.551
922.302, 63.970
923.560, 9.468
924.817, 32.988
926.074, 40.450
927.331, 77.945
928.588, 78.464
929.844, 50.396
931.101, 5.085
932.357, 90.431
933.613, 2.114
934.868, 77.400
936.124, 37.914
937.379, 54.428
938.634, 46.942
939.889, 15.281
941.144, 61.795
942.398, 63.154
943.652, 13.624
944.906, 90.138
946.160, 64.185
947.414, 58.678
948.667, 50.200
949.920, 42.118
951.173, 37.068
952.426, 37.647
953.678, 16.170
954.931, 14.657
956.183, 16.819
957.435, 13.495
958.686, 21.866
959.938, 17.642
961.189, 26.151
962.440, 18.340
963.691, 12.838
964.941, 34.389
966.192, 5.886
967.442, 47.333
968.692, 9.832
969.942, 42.332
971.191, 9.046
972.441, 17.453
973.690, 42.032
974.939, 15.019
976.187, 6.508
977.436, 39.942
978.684, 35.438
979.932, 39.263
981.180, 24.696
982.428, 34.797
983.675, 26.567
984.922, 13.990
986.169, 60.486
987.416, 29.917
988.663, 34.592
989.909, 83.903
991.155, 19.404
992.401, 58.908
993.647, 63.413
994.893, 4.905
996.138, 60.787
997.383, 35.222
998.628, 72.675
999.873, 129.188
1001.117, 122.702
1002.362, 144.218
1003.606, 107.735
1004.850, 84.215
1006.093, 205.708
1007.337, 129.229
1008.580, 165.751
1009.823, 165.279
1011.066, 163.804
1012.308, 166.059
1013.551, 166.591
1014.793, 141.127
1016.035, 227.664
1017.277, 176.365
1018.518, 261.913
1019.760, 256.390
1021.001, 179.941
1022.242, 249.498
1023.483, 203.055
1024.723, 194.614
1025.964, 246.176
1027.204, 215.742
1028.444, 235.289
1029.683, 204.873
1030.923, 207.443
1032.162, 249.018
1033.401, 156.023
1034.640, 212.606
1035.879, 245.194
1037.117, 181.782
1038.355, 268.339
1039.593, 196.229
1040.831, 264.893
1042.069, 318.504
1043.306, 266.205
1044.544, 334.835
1045.781, 368.493
1047.017, 335.136
1048.254, 438.765
1049.490, 419.499
1050.726, 495.127
1051.962, 543.769
1053.198, 427.485
1054.434, 526.098
1055.669, 537.884
1056.904, 555.533
1058.139, 703.183
1059.374, 703.843
1060.608, 876.505
1061.843, 1053.168
1063.077, 1148.085
1064.311, 1108.751
1065.544, 974.468
1066.778, 1082.008
1068.011, 1112.683
1069.244, 1192.453
1070.477, 1420.810
1071.710, 1595.487
1072.942, 1873.250
1074.174, 2368.931
1075.406, 2714.614
1076.638, 3745.343
1077.870, 5393.026
1079.101, 8204.724
1080.332, 15122.158
1081.563, 30309.857
1082.794, 55957.434
1084.025, 62665.156
1085.255, 51182.863
1086.485, 28940.588
1087.715, 15628.308
1088.945, 8716.035
1090.175, 5437.766
1091.404, 3399.485
1092.633, 2319.369
1093.862, 1756.090
1095.091, 1301.812
1096.319, 1127.483
1097.548, 918.206
1098.776, 745.009
1100.004, 710.777
1101.231, 569.500
1102.459, 494.336
1103.686, 542.059
1104.913, 393.967
1106.140, 388.865
1107.367, 339.499
1108.593, 252.305
1109.819, 266.135
1111.046, 203.007
1112.271, 249.284
1113.497, 219.019
1114.722, 131.753
1115.948, 237.639
1117.173, 168.373
1118.398, 169.255
1119.622, 203.992
1120.847, 151.996
1122.071, 202.906
1123.295, 131.645
1124.519, 105.210
1125.742, 144.949
1126.966, 124.687
1128.189, 81.425
1129.412, 95.168
1130.635, 45.906
1131.857, 52.901
1133.080, 141.563
1134.302, 57.315
1135.524, 100.256
1136.746, 109.068
1137.967, 60.858
1139.188, 98.758
1140.410, 60.506
1141.631, 64.371
1142.851, 87.385
1144.072, 40.134
1145.292, 123.237
1146.512, 39.983
1147.732, 102.728
1148.952, 85.771
1150.172, 54.543
1151.391, 55.370
1152.610, 57.309
1153.829, 44.046
1155.048, 83.901
1156.266, 8.635
1157.484, 70.412
1158.702, 85.468
1159.920, 14.198
1161.138, 53.406
1162.356, 52.273
1163.573, 6.004
1164.790, 81.841
1166.007, 24.687
1167.224, 21.402
1168.440, 17.267
1169.656, 33.977
1170.872, 105.785
1172.088, 35.619
1173.304, 21.350
1174.519, 75.281
1175.735, 15.980
1176.950, 35.753
1178.165, 59.274
1179.379, 12.022
1180.594, 75.039
1181.808, 71.798
1183.022, 55.472
1184.236, 69.665
1185.449, 6.893
1186.663, 13.817
1187.876, 77.614
1189.089, 8.396
1190.302, 25.130
1191.515, 24.045
1192.727, 15.892
1193.939, 65.099
1195.151, 9.277
1196.363, 23.906
1197.575, 43.302
1198.786, 15.718
1199.997, 99.428
1201.208, 4.327
1202.419, 62.024
1203.630, 107.795
1204.840, 70.605
1206.051, 41.338
1207.261, 67.198
1208.470, 10.008
1209.680, 97.568
1210.889, 32.538
1212.099, 65.415
1213.308, 108.052
1214.516, 21.889
1215.725, 87.626
1216.933, 121.254
1218.142, 22.311
1219.350, 130.852
1220.557, 79.656
1221.765, 36.187
1222.972, 119.712
1224.180, 105.878
1225.387, 64.944
1226.593, 92.730
1227.800, 59.979
1229.006, 85.484
1230.213, 59.012
1231.419, 57.907
1232.624, 100.391
1233.830, 52.025
1235.035, 52.574
1236.241, 128.050
1237.446, 16.557
1238.650, 80.018
1239.855, 62.476
1241.059, 27.069
1242.264, 102.374
1243.468, 38.813
1244.671, 47.449
1245.875, 67.881
1247.078, 32.310
1248.282, 73.744
1249.485, 92.166
1250.687, 18.890
1251.890, 113.308
1253.092, 42.726
1254.295, 37.141
1255.497, 76.551
1256.699, 38.961
1257.900, 95.369
1259.102, 89.773
1260.303, 27.171
1261.504, 80.564
1262.705, 28.952
1263.905, 103.335
1265.106, 98.713
1266.306, 24.089
1267.506, 89.460
1268.706, 59.820
1269.905, 72.174
1271.105, 106.510
1272.304, 143.842
1273.503, 41.163
1274.702, 136.476
1275.900, 32.784
1277.099, 79.085
1278.297, 87.371
1279.495, 24.642
1280.693, 55.905
1281.891, 61.144
1283.088, 35.369
1284.285, 78.573
1285.482, 43.766
1286.679, 13.948
1287.876, 83.106
1289.072, 5.255
1290.268, 77.396
1291.464, 90.512
1292.660, 11.620
1293.856, 66.709
1295.051, 53.788
1296.247, 26.857
1297.442, 78.914
1298.637, 46.962
1299.831, 85.002
1301.026, 65.013
1302.220, 11.004
1303.414, 77.966
1304.608, 2.924
1305.802, 42.870
1306.995, 144.806
1308.188, 23.428
1309.381, 46.483
1310.574, 86.383
1311.767, 7.726
1312.960, 89.151
1314.152, 54.016
1315.344, 7.129
1316.536, 71.771
1317.728, 24.601
1318.919, 78.420
1320.110, 60.212
1321.301, 17.990
1322.492, 75.788
1323.683, 9.130
1324.874, 6.115
1326.064, 84.625
1327.254, 3.353
1328.444, 32.932
1329.634, 68.476
1330.823, 6.902
1332.013, 49.765
1333.202, 60.599
1334.391, 24.775
1335.580, 31.818
1336.768, 2.756
1337.956, 3.360
1339.145, 6.765
1340.333, 16.582
1341.520, 1.013
1342.708, 59.553
1343.895, 21.102
1345.083, 60.503
1346.270, 42.032
1347.456, 23.446
1348.643, 49.058
1349.829, 23.554
1351.016, 32.043
1352.202, 98.954
1353.387, 10.571
1354.573, 18.839
1355.759, 64.368
1356.944, 22.796
1358.129, 38.123
1359.314, 64.682
1360.498, 5.086
1361.683, 120.384
1362.867, 24.784
1364.051, 92.169
1365.235, 111.505
1366.419, 14.044
1367.602, 4.308
1368.785, 25.557
1369.968, 31.099
1371.151, 94.221
1372.334, 77.605
1373.517, 12.621
1374.699, 124.276
1375.881, 48.340
1377.063, 68.396
1378.245, 176.285
1379.426, 74.319
1380.608, 118.260
1381.789, 183.227
1382.970, 106.115
1384.150, 125.925
1385.331, 142.826
1386.511, 38.689
1387.691, 205.547
1388.871, 123.334
1390.051, 85.113
1391.231, 173.047
1392.410, 25.774
1393.589, 139.656
1394.768, 174.560
1395.947, 141.324
1397.126, 235.030
1398.304, 181.677
1399.483, 176.418
1400.661, 311.089
1401.838, 264.458
1403.016, 409.845
1404.194, 512.665
1405.371, 667.057
1406.548, 1089.490
1407.725, 1765.127
1408.901, 2224.851
1410.078, 2650.859
1411.254, 2468.771
1412.430, 2019.607
1413.606, 1556.131
1414.782, 1133.213
1415.958, 877.143
1417.133, 769.413
1418.308, 512.927
1419.483, 482.846
1420.658, 398.270
1421.832, 315.047
1423.007, 389.298
1424.181, 288.836
1425.355, 219.619
1426.529, 285.800
1427.702, 184.309
1428.876, 179.501
1430.049, 235.174
1431.222, 180.027
1432.395, 176.311
1433.567, 226.688
1434.740, 165.440
1435.912, 263.904
1437.084, 184.194
1438.256, 143.230
1439.428, 243.813
1440.599, 139.872
1441.770, 180.720
1442.942, 227.823
1444.112, 99.605
1445.283, 254.630
1446.454, 175.961
1447.624, 67.627
1448.794, 171.351
1449.964, 96.032
1451.134, 83.229
1452.303, 165.809
1453.473, 63.317
1454.642, 91.090
1455.811, 148.497
1456.980, 45.848
1458.148, 179.143
1459.317, 160.386
1460.485, 95.569
1461.653, 149.692
1462.821, 132.762
1463.989, 81.828
1465.156, 167.873
1466.323, 100.906
1467.490, 101.899
1468.657, 176.912
1469.824, 57.994
1470.991, 123.145
1472.157, 217.328
1473.323, 1.530
1474.489, 195.803
1475.655, 100.118
1476.820, 4.567
1477.986, 162.730
1479.151, 46.216
1480.316, 83.791
1481.481, 171.378
1482.645, 28.954
1483.810, 85.540
1484.974, 101.141
1486.138, 54.476
1487.302, 125.115
1488.465, 125.793
1489.629, 88.522
1490.792, 182.314
1491.955, 81.181
1493.118, 64.127
1494.281, 132.336
1495.443, 34.336
1496.606, 142.406
1497.768, 141.147
1498.930, 19.265
1500.091, 95.209
1501.253, 120.215
1502.414, 55.258
1503.575, 181.321
1504.736, 83.479
1505.897, 42.662
1507.058, 160.643
1508.218, 3.895
1509.379, 117.418
1510.539, 106.390
1511.698, 6.905
1512.858, 38.171
1514.018, 0.000
##END=



