##NAMES=Rhodonite
##RRUFFID=R040041
##IDEAL CHEMISTRY=CaMn^2+^_3_Mn^2+^Si_5_O_15_
##LOCALITY=Franklin, Sussex County, New Jersey, USA
##OWNER=RRUFF
##SOURCE=University of Arizona Mineral Museum
##DESCRIPTION=Pink prismatic crystals
##STATUS=The identification of this mineral has been confirmed by X-ray diffraction and chemical analysis
##URL=rruff.info/R040041
##MEASURED CHEMISTRY=(Mn_0.63_Ca_0.21_Zn_0.12_Mg_0.02_Fe_0.02_)_Î£=1_Si_1.00_O_3_
##PIN_ID=M00442
##ORIENTATION=Laser parallel to a* (1 0 0). Fiducial mark perpendicular to laser is parallel to -b [0 -1 0]
89.890, 0.000
91.284, 99.881
92.678, 13.377
94.071, 107.217
95.465, 377.636
96.858, 769.545
98.251, 1222.399
99.644, 1542.656
101.036, 1525.121
102.428, 1233.178
103.820, 921.050
105.212, 1108.417
106.604, 1558.933
107.995, 2320.454
109.387, 2955.223
110.777, 3632.720
112.168, 3492.584
113.559, 2872.622
114.949, 2396.621
116.339, 2296.676
117.729, 2274.563
119.119, 2483.409
120.508, 3006.117
121.897, 3501.811
123.286, 3755.671
124.675, 3690.844
126.063, 3374.450
127.452, 2887.589
128.840, 2580.341
130.228, 2297.783
131.615, 2165.976
133.003, 2060.958
134.390, 2227.761
135.777, 2508.422
137.164, 2840.183
138.550, 2999.615
139.937, 3048.995
141.323, 2604.343
142.709, 2108.039
144.094, 1619.205
145.480, 1222.805
146.865, 995.847
148.250, 844.584
149.635, 703.903
151.019, 665.552
152.403, 724.521
153.788, 711.795
155.171, 647.364
156.555, 738.218
157.939, 621.347
159.322, 704.729
160.705, 630.335
162.088, 736.156
163.470, 757.197
164.853, 986.467
166.235, 1333.964
167.617, 1594.684
168.998, 1871.618
170.380, 1927.763
171.761, 1959.112
173.142, 1802.623
174.523, 1526.183
175.904, 1330.831
177.284, 1022.598
178.664, 760.503
180.044, 449.555
181.424, 212.761
182.803, 30.126
184.183, 1.349
185.562, 56.337
186.940, 72.182
188.319, 176.183
189.698, 240.336
191.076, 197.637
192.454, 151.081
193.831, 41.666
195.209, 86.613
196.586, 249.740
197.963, 325.688
199.340, 374.470
200.717, 400.141
202.093, 336.720
203.470, 242.208
204.846, 30.607
206.221, 153.085
207.597, 458.867
208.972, 737.738
210.347, 1046.699
211.722, 1290.749
213.097, 1444.887
214.472, 1570.113
215.846, 1493.426
217.220, 1357.826
218.594, 1228.311
219.967, 1146.878
221.341, 948.526
222.714, 849.258
224.087, 801.073
225.460, 711.949
226.832, 714.686
228.204, 701.137
229.577, 777.359
230.948, 966.608
232.320, 1185.985
233.692, 1666.534
235.063, 2105.349
236.434, 2602.444
237.805, 2977.777
239.175, 3259.291
240.545, 3597.904
241.916, 3807.591
243.286, 3868.350
244.655, 4136.180
246.025, 4133.082
247.394, 3979.052
248.763, 3731.089
250.132, 3438.195
251.501, 3090.366
252.869, 2853.602
254.237, 2810.902
255.605, 2759.541
256.973, 2814.336
258.340, 2823.172
259.708, 2855.220
261.075, 2756.714
262.442, 2600.579
263.808, 2389.767
265.175, 2123.228
266.541, 1756.928
267.907, 1690.870
269.273, 1575.021
270.639, 1431.357
272.004, 1508.858
273.369, 1470.502
274.734, 1477.278
276.099, 1514.183
277.463, 1502.198
278.828, 1477.313
280.192, 1365.525
281.556, 1382.821
282.919, 1344.167
284.283, 1303.536
285.646, 1338.931
287.009, 1244.353
288.372, 1378.803
289.734, 1426.286
291.097, 1736.802
292.459, 2006.352
293.821, 2436.935
295.183, 2878.554
296.544, 3383.208
297.905, 3725.900
299.266, 4045.628
300.627, 4116.393
301.988, 4300.350
303.348, 4103.153
304.709, 4143.744
306.069, 3835.202
307.428, 3699.102
308.788, 3383.525
310.147, 3087.826
311.507, 2801.690
312.865, 2634.941
314.224, 2482.585
315.583, 2444.628
316.941, 2465.733
318.299, 2575.897
319.657, 2747.122
321.015, 2881.404
322.372, 2916.742
323.729, 2929.137
325.086, 2919.584
326.443, 2865.085
327.800, 2948.638
329.156, 3120.242
330.512, 3313.896
331.868, 3499.600
333.224, 3855.351
334.579, 4210.148
335.935, 4204.993
337.290, 4508.882
338.645, 4584.817
339.999, 4635.796
341.354, 4637.819
342.708, 4745.886
344.062, 4753.995
345.416, 4760.148
346.769, 4621.340
348.123, 4461.224
349.476, 4233.497
350.829, 4008.811
352.182, 3960.161
353.534, 4182.550
354.887, 4356.976
356.239, 4666.437
357.591, 5101.934
358.942, 5619.128
360.294, 5928.330
361.645, 6117.493
362.996, 6361.956
364.347, 6605.009
365.698, 6481.833
367.048, 6513.880
368.398, 6245.686
369.748, 5913.482
371.098, 5317.385
372.448, 4667.671
373.797, 4085.159
375.146, 3306.496
376.495, 2853.764
377.844, 2394.706
379.192, 2117.167
380.540, 1970.485
381.889, 1771.220
383.236, 1868.549
384.584, 1804.303
385.932, 1826.910
387.279, 1779.692
388.626, 1674.865
389.973, 1489.060
391.319, 1248.278
392.666, 1012.522
394.012, 850.792
395.358, 628.084
396.704, 561.400
398.049, 451.737
399.394, 348.095
400.740, 401.472
402.084, 508.868
403.429, 592.281
404.774, 765.711
406.118, 959.159
407.462, 1128.622
408.806, 1370.102
410.150, 1582.598
411.493, 1845.108
412.836, 2150.633
414.179, 2599.172
415.522, 3037.725
416.865, 3555.292
418.207, 3831.890
419.549, 3995.521
420.891, 3736.302
422.233, 3290.876
423.575, 2690.426
424.916, 2187.012
426.257, 1704.606
427.598, 1212.919
428.939, 908.700
430.279, 699.934
431.619, 464.003
432.959, 391.412
434.299, 367.093
435.639, 363.546
436.978, 279.359
438.318, 268.447
439.657, 176.582
440.996, 128.934
442.334, 83.825
443.673, 57.864
445.011, 64.977
446.349, 11.489
447.687, 126.529
449.024, 79.981
450.361, 135.974
451.699, 205.455
453.036, 247.482
454.372, 310.390
455.709, 359.313
457.045, 295.238
458.381, 165.164
459.717, 117.098
461.053, 18.040
462.388, 61.008
463.724, 35.078
465.059, 51.147
466.394, 47.225
467.728, 28.680
469.063, 62.592
470.397, 173.505
471.731, 154.429
473.065, 266.357
474.398, 312.289
475.732, 301.231
477.065, 383.183
478.398, 416.141
479.731, 399.120
481.063, 410.101
482.396, 390.082
483.728, 376.071
485.060, 660.058
486.391, 776.050
487.723, 1014.039
489.054, 1311.030
490.385, 1665.023
491.716, 1983.013
493.047, 2310.012
494.377, 2184.013
495.708, 2056.011
497.038, 1811.011
498.368, 1479.005
499.697, 1309.999
501.027, 1039.998
502.356, 1031.991
503.685, 991.978
505.014, 1098.959
506.342, 1267.941
507.671, 1525.915
508.999, 1879.910
510.327, 2118.899
511.655, 2309.889
512.982, 2384.872
514.310, 2328.857
515.637, 2094.843
516.964, 1847.820
518.291, 1533.790
519.617, 1316.771
520.944, 1030.792
522.270, 741.869
523.596, 521.030
524.921, 416.264
526.247, 241.566
527.572, 113.911
528.897, 124.256
530.222, 23.588
531.547, 70.090
532.871, 23.828
534.196, 35.606
535.520, 128.432
536.844, 185.353
538.167, 112.401
539.491, 124.541
540.814, 113.778
542.137, 58.109
543.460, 63.504
544.783, 27.968
546.105, 25.518
547.427, 86.978
548.749, 168.420
550.071, 296.844
551.393, 506.249
552.714, 706.635
554.035, 849.002
555.356, 1062.350
556.677, 1057.678
557.998, 1109.986
559.318, 975.274
560.638, 739.541
561.958, 634.787
563.278, 530.013
564.597, 530.217
565.917, 484.399
567.236, 544.561
568.555, 490.700
569.874, 489.817
571.192, 466.911
572.511, 327.984
573.829, 362.033
575.147, 293.060
576.464, 195.062
577.782, 187.042
579.099, 107.998
580.416, 58.927
581.733, 62.824
583.050, 7.688
584.366, 30.500
585.683, 15.268
586.999, 88.012
588.315, 62.397
589.630, 58.873
590.946, 63.439
592.261, 35.097
593.576, 30.706
594.891, 51.648
596.206, 7.550
597.520, 8.514
598.834, 5.489
600.148, 37.534
601.462, 34.527
602.776, 33.417
604.089, 52.269
605.402, 71.236
606.715, 103.952
608.028, 75.733
609.341, 104.764
610.653, 152.556
611.965, 188.318
613.277, 238.806
614.589, 303.648
615.901, 286.356
617.212, 378.277
618.523, 394.349
619.834, 437.137
621.145, 471.660
622.456, 513.157
623.766, 572.877
625.076, 612.886
626.386, 654.010
627.696, 717.519
629.006, 795.776
630.315, 842.482
631.624, 957.793
632.933, 1053.788
634.242, 1135.699
635.551, 1334.835
636.859, 1473.844
638.167, 1536.854
639.475, 1795.200
640.783, 1919.835
642.090, 2143.890
643.398, 2423.745
644.705, 2597.705
646.012, 3097.286
647.318, 3363.984
648.625, 3962.816
649.931, 4498.129
651.237, 5466.434
652.543, 6413.260
653.849, 7757.052
655.155, 9497.773
656.460, 11849.246
657.765, 14642.228
659.070, 18622.820
660.375, 23063.395
661.679, 29273.902
662.984, 35376.262
664.288, 41166.727
665.592, 45832.797
666.895, 47053.398
668.199, 45885.973
669.502, 41596.570
670.805, 36569.160
672.108, 31081.389
673.411, 26642.010
674.713, 22202.490
676.016, 19343.688
677.318, 16913.830
678.620, 15013.751
679.921, 13007.318
681.223, 11227.222
682.524, 9499.316
683.825, 7721.055
685.126, 6556.084
686.427, 5256.987
687.727, 4516.878
689.028, 3823.844
690.328, 3171.875
691.628, 2844.987
692.927, 2464.677
694.227, 2243.158
695.526, 2073.107
696.825, 1906.285
698.124, 1853.941
699.423, 1836.995
700.721, 1729.612
702.020, 1880.365
703.318, 1998.934
704.616, 2230.100
705.913, 2509.233
707.211, 2929.333
708.508, 3553.401
709.805, 4060.435
711.102, 4756.436
712.399, 5016.403
713.695, 5127.337
714.992, 4862.238
716.288, 4064.108
717.584, 3550.944
718.879, 2762.747
720.175, 2251.518
721.470, 1852.255
722.765, 1576.961
724.060, 1391.635
725.355, 1124.276
726.649, 1039.885
727.944, 954.462
729.238, 845.007
730.532, 820.520
731.825, 709.002
733.119, 755.452
734.412, 729.871
735.705, 609.139
736.998, 634.606
738.291, 628.088
739.584, 568.527
740.876, 535.945
742.168, 484.631
743.460, 462.835
744.752, 327.572
746.043, 315.458
747.334, 315.987
748.626, 223.227
749.916, 216.677
751.207, 218.749
752.498, 132.528
753.788, 176.240
755.078, 101.717
756.368, 111.634
757.658, 100.383
758.947, 106.037
760.237, 66.271
761.526, 114.956
762.815, 90.208
764.104, 41.900
765.392, 67.080
766.680, 9.692
767.969, 19.603
769.257, 43.052
770.544, 54.683
771.832, 2.290
773.119, 1.139
774.406, 13.605
775.693, 37.884
776.980, 19.639
778.267, 18.201
779.553, 38.201
780.839, 8.411
782.125, 33.938
783.411, 12.735
784.697, 13.552
785.982, 46.814
787.267, 11.944
788.552, 11.741
789.837, 0.574
791.122, 63.438
792.406, 73.636
793.690, 10.692
794.974, 13.276
796.258, 34.721
797.542, 3.300
798.825, 38.650
800.108, 1.419
801.391, 4.514
802.674, 40.364
803.957, 32.775
805.239, 17.956
806.522, 12.831
807.804, 12.400
809.085, 18.341
810.367, 9.935
811.649, 35.238
812.930, 19.422
814.211, 13.065
815.492, 19.693
816.772, 30.696
818.053, 9.882
819.333, 92.555
820.613, 4.057
821.893, 39.576
823.173, 7.131
824.452, 42.704
825.732, 38.313
827.011, 11.954
828.290, 9.614
829.568, 26.291
830.847, 1.992
832.125, 24.293
833.403, 68.434
834.681, 7.795
835.959, 47.987
837.236, 43.801
838.514, 33.645
839.791, 6.512
841.068, 35.391
842.345, 24.292
843.621, 0.185
844.898, 6.925
846.174, 18.958
847.450, 4.187
848.726, 4.379
850.001, 4.399
851.277, 45.854
852.552, 54.139
853.827, 144.440
855.102, 105.761
856.376, 167.091
857.651, 201.419
858.925, 328.741
860.199, 318.057
861.473, 448.367
862.746, 557.710
864.020, 749.175
865.293, 994.785
866.566, 1252.559
867.839, 1595.845
869.112, 1913.128
870.384, 2277.406
871.656, 2488.681
872.928, 2650.953
874.200, 2726.221
875.472, 2649.488
876.744, 2485.753
878.015, 2242.015
879.286, 2127.277
880.557, 1881.537
881.828, 1731.813
883.098, 1648.089
884.369, 1641.363
885.639, 1609.640
886.909, 1602.917
888.178, 1520.194
889.448, 1465.474
890.717, 1384.764
891.987, 1238.067
893.256, 1130.385
894.524, 1007.717
895.793, 965.065
897.061, 914.466
898.330, 882.303
899.598, 862.390
900.865, 902.908
902.133, 916.476
903.401, 1003.075
904.668, 1147.720
905.935, 1358.356
907.202, 1518.044
908.468, 1770.629
909.735, 2064.287
911.001, 2159.939
912.267, 2395.662
913.533, 2408.239
914.799, 2280.037
916.064, 2173.742
917.330, 1918.168
918.595, 1848.813
919.860, 1682.463
921.124, 1536.364
922.389, 1436.886
923.653, 1396.521
924.918, 1301.919
926.182, 1385.151
927.445, 1384.645
928.709, 1531.232
929.972, 1786.454
931.236, 1931.822
932.499, 2404.483
933.761, 2795.556
935.024, 3182.234
936.286, 3334.143
937.549, 3002.579
938.811, 2768.396
940.073, 2351.506
941.334, 2083.678
942.596, 1744.614
943.857, 1544.655
945.118, 1495.686
946.379, 1449.356
947.640, 1388.716
948.900, 1555.642
950.161, 1420.745
951.421, 1679.727
952.681, 1692.065
953.940, 1931.265
955.200, 2117.307
956.459, 2294.855
957.719, 2640.392
958.978, 3061.390
960.236, 3644.400
961.495, 4517.462
962.753, 5309.746
964.012, 6736.505
965.270, 8513.633
966.527, 10600.760
967.785, 13607.930
969.043, 16063.251
970.300, 18420.443
971.557, 19114.766
972.814, 19869.037
974.071, 18814.066
975.327, 17611.047
976.583, 15596.019
977.840, 14401.332
979.095, 13198.231
980.351, 12645.261
981.607, 12981.544
982.862, 12978.860
984.117, 14476.377
985.372, 15840.229
986.627, 17817.725
987.882, 20993.000
989.136, 22958.615
990.390, 24804.910
991.644, 25102.312
992.898, 23918.625
994.152, 23985.494
995.405, 23833.098
996.659, 25570.779
997.912, 27557.971
999.165, 29405.688
1000.417, 32113.424
1001.670, 32071.088
1002.922, 30258.857
1004.174, 27716.641
1005.426, 23394.443
1006.678, 19782.270
1007.930, 16860.109
1009.181, 13847.968
1010.432, 12315.838
1011.683, 10843.727
1012.934, 9891.629
1014.185, 9009.557
1015.435, 8207.497
1016.685, 7705.456
1017.935, 7243.429
1019.185, 6731.417
1020.435, 6699.425
1021.684, 6227.448
1022.934, 6105.484
1024.183, 5953.535
1025.432, 5712.857
1026.680, 5725.938
1027.929, 5604.043
1029.177, 5413.495
1030.425, 5402.708
1031.673, 5212.823
1032.921, 5338.974
1034.169, 5174.318
1035.416, 5180.087
1036.663, 5355.425
1037.911, 5514.716
1039.157, 5798.519
1040.404, 6467.211
1041.650, 7196.791
1042.897, 8185.552
1044.143, 9174.406
1045.389, 9913.560
1046.634, 10494.759
1047.880, 10624.157
1049.125, 10384.384
1050.371, 10102.791
1051.615, 9096.128
1052.860, 7995.410
1054.105, 6536.714
1055.349, 5293.191
1056.593, 4373.178
1057.837, 3350.227
1059.081, 2929.493
1060.325, 2417.732
1061.568, 1998.694
1062.812, 1919.121
1064.055, 1681.558
1065.298, 1547.002
1066.540, 1466.502
1067.783, 1331.153
1069.025, 1326.098
1070.267, 1214.753
1071.509, 1158.514
1072.751, 1207.087
1073.993, 1100.333
1075.234, 1005.507
1076.475, 1006.452
1077.716, 860.223
1078.957, 922.090
1080.198, 773.440
1081.438, 740.148
1082.679, 760.961
1083.919, 637.243
1085.159, 619.105
1086.398, 608.892
1087.638, 501.629
1088.877, 594.497
1090.116, 463.421
1091.355, 442.065
1092.594, 480.026
1093.833, 455.937
1095.071, 395.848
1096.309, 367.719
1097.547, 359.337
1098.785, 415.529
1100.023, 344.905
1101.260, 361.947
1102.498, 334.999
1103.735, 298.860
1104.972, 359.989
1106.208, 328.139
1107.445, 339.610
1108.681, 472.692
1109.918, 352.020
1111.154, 364.146
1112.389, 338.238
1113.625, 240.635
1114.860, 392.849
1116.096, 271.899
1117.331, 334.087
1118.566, 325.996
1119.800, 324.131
1121.035, 428.453
1122.269, 455.727
1123.503, 286.864
1124.737, 292.157
1125.971, 167.193
1127.205, 240.281
1128.438, 289.869
1129.671, 165.957
1130.904, 227.921
1132.137, 168.143
1133.370, 225.902
1134.602, 243.115
1135.834, 167.129
1137.066, 253.122
1138.298, 207.159
1139.530, 161.192
1140.762, 160.416
1141.993, 91.831
1143.224, 177.174
1144.455, 166.386
1145.686, 152.380
1146.917, 170.455
1148.147, 148.451
1149.377, 122.665
1150.607, 167.833
1151.837, 134.944
1153.067, 155.959
1154.296, 121.612
1155.526, 112.477
1156.755, 132.748
1157.984, 149.940
1159.213, 124.503
1160.441, 135.917
1161.670, 122.094
1162.898, 108.100
1164.126, 92.063
1165.354, 79.971
1166.581, 101.233
1167.809, 70.753
1169.036, 53.654
1170.263, 77.765
1171.490, 46.895
1172.717, 8.227
1173.943, 68.944
1175.170, 16.395
1176.396, 9.735
1177.622, 2.263
1178.848, 73.910
1180.073, 26.166
1181.299, 2.014
1182.524, 14.253
1183.749, 0.565
1184.974, 11.654
1186.199, 12.622
1187.423, 28.681
1188.648, 25.998
1189.872, 9.283
1191.096, 10.635
1192.320, 16.010
1193.543, 48.242
1194.767, 18.592
1195.990, 31.002
1197.213, 29.599
1198.436, 78.851
1199.659, 13.401
1200.881, 44.828
1202.104, 28.562
1203.326, 6.063
1204.548, 22.490
1205.770, 25.162
1206.991, 55.852
1208.213, 82.551
1209.434, 202.640
1210.655, 79.493
1211.876, 93.934
1213.096, 66.174
1214.317, 15.573
1215.537, 23.544
1216.757, 29.646
1217.977, 10.732
1219.197, 58.803
1220.417, 0.141
1221.636, 14.106
1222.855, 6.898
1224.074, 37.944
1225.293, 6.970
1226.512, 29.745
1227.731, 60.840
1228.949, 38.699
1230.167, 42.319
1231.385, 34.486
1232.603, 57.400
1233.820, 15.728
1235.038, 44.191
1236.255, 34.897
1237.472, 28.168
1238.689, 34.478
1239.906, 30.904
1241.122, 56.165
1242.338, 68.733
1243.555, 11.619
1244.771, 43.904
1245.986, 3.598
1247.202, 38.997
1248.417, 39.620
1249.633, 88.046
1250.848, 13.516
1252.063, 32.845
1253.277, 1.829
1254.492, 46.639
1255.706, 24.921
1256.920, 42.212
1258.134, 51.539
1259.348, 1.840
1260.562, 37.139
1261.775, 68.493
1262.988, 57.353
1264.201, 106.895
1265.414, 53.988
1266.627, 25.938
1267.839, 40.350
1269.052, 65.364
1270.264, 42.399
1271.476, 96.356
1272.688, 14.291
1273.899, 29.250
1275.111, 89.115
1276.322, 130.948
1277.533, 59.760
1278.744, 25.549
1279.955, 66.308
1281.165, 114.176
1282.376, 121.890
1283.586, 113.500
1284.796, 116.250
1286.006, 70.894
1287.215, 46.668
1288.425, 54.324
1289.634, 75.897
1290.843, 139.447
1292.052, 108.976
1293.261, 127.503
1294.469, 75.266
1295.678, 85.725
1296.886, 99.545
1298.094, 25.081
1299.302, 10.469
1300.509, 30.044
1301.717, 64.377
1302.924, 76.718
1304.131, 42.443
1305.338, 50.703
1306.545, 1.933
1307.752, 118.130
1308.958, 28.304
1310.164, 99.450
1311.370, 92.571
1312.576, 14.667
1313.782, 185.733
1314.987, 84.777
1316.193, 78.795
1317.398, 138.791
1318.603, 70.509
1319.807, 47.459
1321.012, 133.374
1322.216, 99.936
1323.421, 172.725
1324.625, 69.602
1325.829, 124.432
1327.032, 219.050
1328.236, 118.232
1329.439, 62.839
1330.642, 152.483
1331.845, 79.608
1333.048, 165.836
1334.251, 120.167
1335.453, 132.306
1336.656, 163.344
1337.858, 94.076
1339.060, 110.746
1340.261, 119.207
1341.463, 107.826
1342.664, 117.253
1343.866, 172.772
1345.067, 88.298
1346.267, 173.792
1347.468, 167.101
1348.669, 68.891
1349.869, 142.608
1351.069, 115.100
1352.269, 102.608
1353.469, 163.385
1354.668, 101.686
1355.868, 119.969
1357.067, 161.827
1358.266, 85.073
1359.465, 167.786
1360.664, 175.809
1361.862, 162.835
1363.061, 150.761
1364.259, 146.866
1365.457, 118.291
1366.655, 156.900
1367.852, 66.628
1369.050, 97.537
1370.247, 40.267
1371.444, 14.514
1372.641, 121.401
1373.838, 68.170
1375.035, 95.452
1376.231, 65.132
1377.427, 70.884
1378.623, 49.673
1379.819, 142.326
1381.015, 41.089
1382.211, 117.826
1383.406, 165.413
1384.601, 17.091
1385.796, 172.688
1386.991, 64.645
1388.185, 97.134
1389.380, 117.124
1390.574, 55.844
1391.768, 44.696
1392.962, 87.412
1394.156, 78.416
1395.350, 114.069
1396.543, 102.113
1397.736, 37.173
1398.929, 84.976
1400.122, 67.229
1401.315, 54.293
1402.507, 54.239
1403.700, 49.042
1404.892, 31.062
1406.084, 113.788
1407.276, 40.870
1408.467, 107.562
1409.659, 85.367
1410.850, 20.723
1412.041, 102.066
1413.232, 7.464
1414.423, 150.522
1415.614, 66.752
1416.804, 49.286
1417.994, 70.207
1419.184, 83.229
1420.374, 77.305
1421.564, 130.293
1422.753, 133.322
1423.943, 27.294
1425.132, 185.083
1426.321, 76.204
1427.510, 59.732
1428.698, 80.495
1429.887, 18.506
1431.075, 40.573
1432.263, 64.267
1433.451, 79.138
1434.639, 67.141
1435.827, 32.011
1437.014, 5.749
1438.201, 81.820
1439.388, 3.103
1440.575, 20.004
1441.762, 101.919
1442.949, 4.006
1444.135, 81.061
1445.321, 39.086
1446.507, 5.205
1447.693, 135.213
1448.879, 57.941
1450.064, 59.696
1451.250, 96.249
1452.435, 118.904
1453.620, 51.442
1454.805, 130.516
1455.989, 70.330
1457.174, 108.329
1458.358, 79.687
1459.542, 66.603
1460.726, 139.674
1461.910, 139.368
1463.093, 178.145
1464.277, 174.725
1465.460, 175.744
1466.643, 137.890
1467.826, 176.175
1469.009, 120.390
1470.191, 145.280
1471.373, 155.075
1472.556, 105.096
1473.738, 163.126
1474.919, 162.790
1476.101, 116.826
1477.283, 137.409
1478.464, 140.266
1479.645, 161.298
1480.826, 205.343
1482.007, 112.061
1483.187, 106.602
1484.368, 130.767
1485.548, 16.947
1486.728, 160.828
1487.908, 194.730
1489.088, 41.646
1490.268, 117.593
1491.447, 81.542
1492.626, 98.493
1493.805, 177.447
1494.984, 88.418
1496.163, 142.418
1497.341, 151.558
1498.520, 24.289
1499.698, 132.874
1500.876, 167.057
1502.054, 69.264
1503.232, 145.574
1504.409, 125.004
1505.586, 101.327
1506.763, 108.017
1507.940, 8.797
1509.117, 111.688
1510.294, 146.712
1511.470, 31.763
1512.647, 119.202
1513.823, 152.416
1514.999, 36.268
1516.174, 122.498
1517.350, 36.311
1518.526, 16.381
1519.701, 153.215
1520.876, 72.218
1522.051, 0.372
1523.226, 0.000
##END=



