##NAMES=Scolecite
##RRUFFID=R050083
##IDEAL CHEMISTRY=Ca(Si_3_Al_2_)O_10_&#183;3H_2_O
##LOCALITY=near Ahmednagar, Maharashtra, India
##OWNER=RRUFF
##SOURCE=Rock Currier
##DESCRIPTION=Colorless acicular single crystals associated with fluorapophyllite
##STATUS=The identification of this mineral has been confirmed by X-ray diffraction and chemical analysis
##URL=rruff.info/R050083
##MEASURED CHEMISTRY=(Ca_.992_Na_.008_)[Al_2_Si_3_O_10_]Â·3H_2_O
##PIN_ID=M00267
##ORIENTATION=Laser parallel to -c* (0 0 -1). Fiducial mark perpendicular to laser is parallel to -a [-1 0 0]
49.184, 0.000
50.590, 18.641
51.996, 31.674
53.401, 91.041
54.807, 136.564
56.212, 259.311
57.617, 433.961
59.021, 586.124
60.426, 739.880
61.830, 924.167
63.234, 1036.858
64.637, 1176.500
66.041, 1184.186
67.444, 1117.589
68.847, 1037.312
70.250, 1047.557
71.652, 964.717
73.054, 886.175
74.456, 801.904
75.858, 669.965
77.260, 522.325
78.661, 422.963
80.062, 329.852
81.463, 222.965
82.863, 106.285
84.264, 34.796
85.664, 13.611
87.064, 50.621
88.463, 51.525
89.863, 54.246
91.262, 39.805
92.661, 83.790
94.059, 177.535
95.458, 263.424
96.856, 362.446
98.254, 425.593
99.652, 529.864
101.049, 571.225
102.446, 710.645
103.843, 843.130
105.240, 1030.725
106.637, 1209.416
108.033, 1541.160
109.429, 1840.933
110.825, 2371.734
112.220, 2924.562
113.616, 3142.436
115.011, 2992.372
116.406, 2684.349
117.800, 2187.363
119.195, 1918.420
120.589, 1493.546
121.983, 1321.851
123.377, 1261.463
124.770, 1339.385
126.163, 1436.379
127.556, 1608.348
128.949, 1609.287
130.342, 1386.199
131.734, 1236.084
133.126, 1105.979
134.518, 1110.988
135.909, 1130.100
137.301, 1366.294
138.692, 1832.552
140.083, 2442.855
141.473, 3163.188
142.864, 3784.526
144.254, 3935.843
145.644, 3649.134
147.034, 2970.680
148.423, 2413.354
149.812, 2073.712
151.201, 1969.766
152.590, 2067.606
153.979, 2424.235
155.367, 2950.785
156.755, 3608.323
158.143, 4247.024
159.530, 4613.854
160.918, 4543.837
162.305, 4056.491
163.692, 3342.011
165.078, 2745.885
166.465, 2369.385
167.851, 2094.894
169.237, 1972.409
170.623, 1794.932
172.008, 1712.463
173.393, 1632.002
174.778, 1677.549
176.163, 1703.604
177.548, 1689.973
178.932, 1781.448
180.316, 2113.810
181.700, 2320.727
183.083, 2674.587
184.467, 2952.518
185.850, 3154.801
187.233, 3205.946
188.616, 3058.217
189.998, 2739.628
191.380, 2136.402
192.762, 1876.983
194.144, 1513.819
195.525, 1307.888
196.907, 1088.271
198.288, 1027.979
199.669, 958.739
201.049, 907.464
202.429, 900.338
203.810, 929.554
205.189, 958.761
206.569, 947.975
207.949, 893.196
209.328, 880.422
210.707, 789.654
212.085, 698.892
213.464, 656.137
214.842, 670.387
216.220, 710.006
217.598, 772.641
218.976, 870.156
220.353, 1076.496
221.730, 1195.616
223.107, 1303.503
224.483, 1377.166
225.860, 1251.545
227.236, 1008.605
228.612, 826.413
229.988, 693.021
231.363, 579.439
232.738, 606.594
234.113, 545.301
235.488, 569.397
236.863, 510.993
238.237, 415.511
239.611, 302.033
240.985, 234.579
242.359, 225.148
243.732, 166.739
245.105, 184.186
246.478, 159.288
247.851, 180.846
249.223, 190.281
250.595, 268.406
251.967, 342.393
253.339, 440.200
254.711, 551.085
256.082, 594.929
257.453, 604.803
258.824, 486.439
260.195, 396.098
261.565, 205.306
262.935, 162.955
264.305, 100.749
265.675, 16.551
267.044, 39.358
268.414, 42.171
269.783, 24.990
271.151, 20.813
272.520, 32.641
273.888, 55.473
275.256, 24.310
276.624, 76.151
277.992, 86.997
279.359, 111.848
280.726, 161.704
282.093, 193.565
283.460, 265.431
284.827, 363.306
286.193, 399.186
287.559, 489.071
288.925, 570.967
290.290, 556.863
291.656, 585.760
293.021, 433.663
294.386, 334.566
295.750, 282.473
297.115, 193.382
298.479, 156.295
299.843, 65.209
301.207, 57.124
302.570, 23.039
303.933, 34.952
305.296, 11.869
306.659, 18.784
308.022, 5.696
309.384, 38.608
310.746, 83.519
312.108, 38.434
313.470, 61.346
314.831, 66.257
316.193, 39.169
317.554, 69.080
318.914, 8.995
320.275, 24.910
321.635, 17.828
322.995, 36.742
324.355, 7.654
325.715, 15.561
327.074, 25.465
328.434, 2.633
329.792, 6.731
331.151, 20.829
332.510, 29.489
333.868, 31.486
335.226, 41.143
336.584, 40.260
337.941, 49.384
339.299, 65.516
340.656, 69.665
342.013, 80.831
343.370, 91.018
344.726, 53.229
346.082, 9.451
347.438, 59.674
348.794, 39.909
350.150, 27.846
351.505, 8.398
352.860, 66.355
354.215, 52.109
355.570, 125.855
356.924, 165.587
358.278, 152.299
359.632, 137.981
360.986, 167.624
362.339, 228.230
363.693, 206.823
365.046, 207.409
366.399, 320.997
367.751, 386.592
369.104, 346.193
370.456, 388.800
371.808, 441.413
373.159, 423.032
374.511, 412.657
375.862, 411.288
377.213, 423.925
378.564, 309.568
379.914, 254.199
381.265, 242.819
382.615, 227.427
383.965, 184.025
385.315, 213.612
386.664, 127.191
388.013, 183.761
389.362, 161.325
390.711, 182.884
392.060, 135.438
393.408, 112.989
394.756, 180.537
396.104, 232.083
397.451, 285.630
398.799, 340.180
400.146, 370.735
401.493, 413.295
402.840, 544.861
404.186, 668.432
405.533, 684.009
406.879, 749.426
408.225, 765.930
409.570, 697.345
410.916, 579.869
412.261, 456.458
413.606, 399.097
414.951, 390.766
416.295, 250.472
417.639, 287.218
418.983, 243.001
420.327, 282.818
421.671, 274.649
423.014, 262.494
424.357, 356.346
425.700, 380.204
427.043, 531.870
428.386, 571.177
429.728, 651.610
431.070, 752.067
432.412, 952.463
433.753, 1041.853
435.095, 1162.305
436.436, 1317.862
437.777, 1315.302
439.118, 1351.970
440.458, 1392.694
441.798, 1377.533
443.138, 1388.453
444.478, 1358.377
445.818, 1422.547
447.157, 1487.190
448.496, 1555.376
449.835, 1656.194
451.174, 1738.140
452.513, 1871.178
453.851, 1924.951
455.189, 2125.915
456.527, 2282.450
457.864, 2511.418
459.202, 2725.258
460.539, 2650.234
461.876, 2566.332
463.212, 2263.243
464.549, 1949.889
465.885, 1600.774
467.221, 1319.394
468.557, 1110.052
469.893, 960.938
471.228, 768.700
472.563, 669.165
473.898, 577.945
475.233, 537.836
476.567, 520.759
477.902, 519.597
479.236, 537.571
480.570, 514.303
481.903, 527.117
483.237, 588.919
484.570, 615.822
485.903, 677.614
487.235, 665.455
488.568, 773.363
489.900, 731.026
491.232, 800.564
492.564, 772.504
493.896, 802.016
495.227, 760.446
496.558, 819.331
497.889, 817.301
499.220, 828.716
500.551, 836.135
501.881, 886.324
503.211, 829.831
504.541, 870.720
505.870, 926.013
507.200, 910.647
508.529, 995.576
509.858, 1057.746
511.187, 1114.962
512.515, 1161.689
513.844, 1330.053
515.172, 1430.410
516.500, 1598.790
517.827, 1774.176
519.155, 2012.573
520.482, 2252.977
521.809, 2644.402
523.136, 2951.842
524.462, 3520.288
525.789, 4183.740
527.115, 5012.198
528.441, 6208.663
529.766, 7494.134
531.092, 9621.612
532.417, 11629.094
533.742, 14306.588
535.067, 16304.087
536.391, 17451.592
537.716, 17319.105
539.040, 15356.627
540.364, 12874.153
541.688, 10421.687
543.011, 8079.225
544.334, 6558.770
545.657, 5033.319
546.980, 4097.875
548.303, 3430.438
549.625, 2786.006
550.947, 2451.580
552.269, 2074.160
553.591, 1885.746
554.913, 1693.337
556.234, 1493.935
557.555, 1379.538
558.876, 1266.148
560.197, 1162.763
561.517, 1069.384
562.837, 1058.010
564.157, 951.642
565.477, 894.279
566.797, 901.923
568.116, 804.573
569.435, 809.228
570.754, 707.889
572.073, 708.555
573.391, 668.226
574.709, 569.902
576.027, 563.583
577.345, 481.268
578.663, 454.967
579.980, 378.688
581.297, 355.254
582.614, 338.057
583.931, 306.773
585.248, 283.107
586.564, 273.839
587.880, 170.578
589.196, 148.325
590.511, 126.075
591.827, 100.890
593.142, 124.651
594.457, 43.417
595.772, 107.259
597.086, 95.034
598.401, 22.814
599.715, 68.598
601.029, 58.385
602.343, 21.176
603.656, 30.031
604.969, 41.755
606.282, 10.455
607.595, 50.665
608.908, 7.111
610.220, 4.111
611.532, 26.332
612.844, 1.442
614.156, 19.782
615.468, 10.991
616.779, 27.233
618.090, 6.560
619.401, 11.668
620.712, 5.897
622.022, 44.875
623.332, 34.337
624.642, 35.589
625.952, 54.463
627.262, 10.709
628.571, 44.162
629.880, 41.024
631.189, 26.743
632.498, 44.521
633.807, 14.659
635.115, 71.795
636.423, 68.687
637.731, 84.571
639.039, 109.719
640.346, 126.106
641.653, 103.925
642.960, 135.882
644.267, 180.051
645.574, 176.659
646.880, 146.189
648.186, 216.040
649.492, 208.826
650.798, 241.785
652.103, 278.819
653.409, 187.859
654.714, 312.846
656.019, 230.776
657.323, 190.771
658.628, 256.612
659.932, 252.578
661.236, 228.997
662.540, 161.158
663.843, 180.237
665.147, 122.204
666.450, 191.408
667.753, 185.565
669.056, 155.824
670.358, 131.116
671.660, 130.039
672.963, 112.050
674.264, 149.991
675.566, 67.188
676.868, 140.289
678.169, 162.890
679.470, 88.493
680.771, 109.552
682.071, 111.580
683.372, 108.497
684.672, 45.411
685.972, 153.396
687.271, 120.302
688.571, 111.532
689.870, 183.429
691.169, 113.873
692.468, 192.827
693.767, 231.387
695.065, 263.363
696.364, 322.395
697.662, 286.403
698.960, 274.268
700.257, 333.129
701.555, 343.039
702.852, 433.890
704.149, 512.750
705.446, 472.591
706.742, 549.448
708.038, 577.279
709.335, 599.105
710.631, 514.926
711.926, 493.843
713.222, 410.661
714.517, 355.591
715.812, 284.391
717.107, 273.184
718.402, 208.973
719.696, 154.755
720.990, 160.532
722.284, 140.414
723.578, 170.179
724.872, 150.939
726.165, 151.270
727.458, 130.441
728.751, 141.184
730.044, 118.919
731.336, 111.649
732.629, 93.374
733.921, 96.337
735.213, 44.146
736.504, 1.851
737.796, 27.719
739.087, 61.401
740.378, 7.078
741.669, 71.571
742.960, 92.376
744.250, 53.043
745.540, 112.686
746.830, 40.322
748.120, 81.951
749.410, 62.573
750.699, 39.187
751.988, 114.794
753.277, 94.394
754.566, 110.986
755.854, 147.571
757.143, 62.149
758.431, 171.720
759.719, 96.333
761.006, 76.889
762.294, 166.190
763.581, 175.855
764.868, 124.389
766.155, 85.828
767.442, 145.530
768.728, 108.037
770.014, 123.969
771.300, 126.590
772.586, 53.088
773.872, 120.570
775.157, 99.748
776.442, 106.082
777.727, 57.542
779.012, 22.814
780.297, 35.257
781.581, 47.692
782.865, 37.847
784.149, 52.265
785.433, 62.172
786.716, 0.425
787.999, 12.961
789.282, 53.664
790.565, 33.666
791.848, 35.987
793.130, 5.701
794.413, 9.408
795.695, 32.138
796.977, 23.097
798.258, 5.676
799.540, 44.470
800.821, 11.305
802.102, 64.163
803.382, 47.143
804.663, 2.025
805.943, 34.996
807.224, 35.002
808.504, 34.045
809.783, 41.876
811.063, 28.789
812.342, 31.308
813.621, 43.561
814.900, 9.420
816.179, 35.733
817.457, 29.077
818.736, 55.877
820.014, 17.668
821.292, 20.448
822.569, 15.217
823.847, 13.975
825.124, 0.280
826.401, 48.448
827.678, 68.167
828.954, 5.124
830.231, 24.566
831.507, 43.754
832.783, 12.115
834.059, 31.501
835.334, 38.107
836.610, 73.704
837.885, 64.611
839.160, 44.873
840.435, 64.444
841.709, 12.006
842.983, 62.558
844.258, 5.101
845.532, 46.631
846.805, 2.151
848.079, 38.657
849.352, 24.154
850.625, 28.641
851.898, 68.120
853.171, 62.590
854.443, 48.052
855.715, 127.506
856.988, 56.952
858.259, 92.390
859.531, 54.833
860.803, 62.268
862.074, 65.700
863.345, 96.125
864.616, 34.542
865.886, 56.950
867.157, 28.354
868.427, 115.749
869.697, 64.148
870.967, 104.540
872.236, 67.924
873.506, 85.301
874.775, 30.671
876.044, 96.032
877.313, 59.386
878.581, 100.732
879.849, 94.071
881.118, 56.403
882.386, 120.728
883.653, 77.056
884.921, 79.377
886.188, 28.310
887.455, 30.977
888.722, 81.238
889.989, 10.652
891.255, 105.824
892.522, 75.081
893.788, 23.282
895.054, 15.945
896.319, 47.164
897.585, 72.375
898.850, 63.582
900.115, 59.723
901.380, 78.500
902.645, 67.106
903.909, 110.218
905.174, 98.394
906.438, 125.564
907.701, 177.729
908.965, 150.887
910.229, 132.040
911.492, 189.187
912.755, 159.333
914.018, 149.472
915.280, 243.607
916.543, 202.744
917.805, 261.877
919.067, 313.004
920.329, 395.130
921.590, 454.250
922.852, 506.369
924.113, 681.482
925.374, 778.571
926.635, 1022.677
927.895, 1276.780
929.156, 1562.879
930.416, 1864.962
931.676, 1837.900
932.936, 1692.886
934.195, 1468.922
935.454, 1116.914
936.714, 979.961
937.973, 764.045
939.231, 572.117
940.490, 594.828
941.748, 426.536
943.006, 293.488
944.264, 320.444
945.522, 216.135
946.780, 276.585
948.037, 232.601
949.294, 276.475
950.551, 212.138
951.808, 206.359
953.064, 291.656
954.320, 219.631
955.577, 176.671
956.832, 282.541
958.088, 159.341
959.344, 276.140
960.599, 241.000
961.854, 297.925
963.109, 326.793
964.364, 381.830
965.618, 351.756
966.872, 555.248
968.127, 532.018
969.380, 781.881
970.634, 926.854
971.888, 938.605
973.141, 989.408
974.394, 802.107
975.647, 749.771
976.900, 487.804
978.152, 433.744
979.404, 395.750
980.656, 412.497
981.908, 404.338
983.160, 417.090
984.411, 424.468
985.663, 457.894
986.914, 455.803
988.165, 457.819
989.415, 490.835
990.666, 498.778
991.916, 654.803
993.166, 706.545
994.416, 736.578
995.665, 789.590
996.915, 778.684
998.164, 800.398
999.413, 745.343
1000.662, 723.248
1001.911, 699.159
1003.159, 624.207
1004.407, 525.258
1005.655, 592.263
1006.903, 494.324
1008.151, 590.373
1009.398, 586.254
1010.646, 630.299
1011.893, 753.588
1013.139, 810.656
1014.386, 977.726
1015.633, 1133.696
1016.879, 1189.370
1018.125, 1537.318
1019.371, 1857.124
1020.616, 2218.201
1021.862, 2842.297
1023.107, 3173.375
1024.352, 3622.466
1025.597, 3518.437
1026.842, 3007.518
1028.086, 2754.620
1029.330, 2090.750
1030.574, 1646.855
1031.818, 1467.962
1033.062, 1080.288
1034.305, 1004.396
1035.548, 865.521
1036.791, 816.386
1038.034, 862.402
1039.277, 661.546
1040.519, 795.488
1041.762, 696.612
1043.004, 600.746
1044.246, 645.050
1045.487, 537.137
1046.729, 644.311
1047.970, 586.506
1049.211, 514.853
1050.452, 540.011
1051.692, 636.169
1052.933, 508.414
1054.173, 621.579
1055.413, 583.924
1056.653, 771.095
1057.893, 697.273
1059.132, 768.534
1060.371, 883.729
1061.610, 917.910
1062.849, 979.093
1064.088, 1032.275
1065.326, 989.478
1066.565, 966.721
1067.803, 916.946
1069.041, 776.262
1070.278, 742.470
1071.516, 564.954
1072.753, 572.163
1073.990, 527.375
1075.227, 389.597
1076.464, 432.819
1077.700, 398.043
1078.936, 309.461
1080.173, 367.693
1081.408, 308.926
1082.644, 324.273
1083.880, 400.519
1085.115, 294.167
1086.350, 347.419
1087.585, 348.671
1088.820, 429.194
1090.054, 389.459
1091.288, 338.744
1092.522, 611.145
1093.756, 562.430
1094.990, 576.722
1096.224, 722.035
1097.457, 776.349
1098.690, 700.840
1099.923, 820.162
1101.156, 774.500
1102.388, 698.846
1103.621, 676.215
1104.853, 631.788
1106.085, 687.189
1107.316, 507.595
1108.548, 414.193
1109.779, 510.640
1111.010, 299.076
1112.241, 370.575
1113.472, 320.023
1114.703, 228.503
1115.933, 310.206
1117.163, 189.672
1118.393, 168.265
1119.623, 181.731
1120.853, 206.200
1122.082, 188.865
1123.311, 146.334
1124.540, 87.911
1125.769, 76.591
1126.997, 124.065
1128.226, 99.738
1129.454, 83.365
1130.682, 66.844
1131.910, 42.383
1133.138, 39.812
1134.365, 42.765
1135.592, 32.536
1136.819, 41.114
1138.046, 43.297
1139.273, 79.911
1140.499, 3.586
1141.725, 50.793
1142.951, 43.482
1144.177, 6.295
1145.403, 133.366
1146.628, 58.868
1147.854, 1.966
1149.079, 57.920
1150.304, 33.416
1151.528, 92.401
1152.753, 97.567
1153.977, 20.312
1155.201, 71.386
1156.425, 62.910
1157.649, 108.685
1158.872, 36.638
1160.096, 58.840
1161.319, 16.741
1162.542, 33.468
1163.764, 21.790
1164.987, 84.724
1166.209, 59.665
1167.431, 83.952
1168.653, 12.335
1169.875, 47.741
1171.097, 15.619
1172.318, 78.989
1173.539, 29.356
1174.760, 35.488
1175.981, 18.120
1177.202, 95.750
1178.422, 96.568
1179.642, 47.087
1180.862, 124.341
1182.082, 23.748
1183.302, 45.219
1184.521, 93.309
1185.740, 22.617
1186.959, 47.945
1188.178, 46.108
1189.397, 29.461
1190.615, 37.959
1191.834, 15.429
1193.052, 26.815
1194.269, 28.017
1195.487, 1.421
1196.705, 101.844
1197.922, 47.298
1199.139, 19.670
1200.356, 83.682
1201.573, 0.975
1202.789, 62.340
1204.006, 45.887
1205.222, 25.153
1206.438, 41.382
1207.653, 71.884
1208.869, 56.731
1210.084, 62.113
1211.299, 60.833
1212.514, 42.005
1213.729, 47.557
1214.944, 27.070
1216.158, 104.219
1217.372, 1.543
1218.586, 57.870
1219.800, 112.222
1221.014, 59.671
1222.227, 105.777
1223.440, 104.934
1224.654, 15.760
1225.866, 179.840
1227.079, 149.957
1228.292, 13.631
1229.504, 114.595
1230.716, 1.124
1231.928, 100.062
1233.139, 147.089
1234.351, 9.437
1235.562, 130.451
1236.773, 93.460
1237.984, 42.464
1239.195, 102.463
1240.406, 82.503
1241.616, 68.493
1242.826, 100.533
1244.036, 30.628
1245.246, 77.602
1246.456, 74.569
1247.665, 82.617
1248.874, 107.573
1250.083, 30.523
1251.292, 73.466
1252.501, 98.401
1253.709, 34.492
1254.917, 74.573
1256.125, 138.476
1257.333, 63.368
1258.541, 96.247
1259.748, 72.108
1260.956, 22.139
1262.163, 130.079
1263.370, 50.901
1264.576, 91.894
1265.783, 163.690
1266.989, 35.550
1268.195, 105.321
1269.401, 58.079
1270.607, 34.874
1271.813, 99.610
1273.018, 37.339
1274.223, 50.294
1275.428, 149.974
1276.633, 18.359
1277.838, 28.708
1279.042, 62.345
1280.246, 29.283
1281.450, 71.894
1282.654, 5.489
1283.858, 1.806
1285.061, 94.847
1286.265, 13.679
1287.468, 45.856
1288.671, 26.333
1289.873, 8.212
1291.076, 131.361
1292.278, 9.786
1293.480, 16.150
1294.682, 103.514
1295.884, 14.865
1297.086, 8.801
1298.287, 35.494
1299.488, 11.777
1300.689, 41.172
1301.890, 58.577
1303.091, 38.014
1304.291, 81.894
1305.491, 15.051
1306.691, 29.193
1307.891, 27.320
1309.091, 68.824
1310.290, 44.920
1311.490, 35.271
1312.689, 108.336
1313.888, 83.368
1315.086, 12.401
1316.285, 111.406
1317.483, 116.406
1318.681, 59.612
1319.879, 31.333
1321.077, 31.232
1322.275, 15.143
1323.472, 114.034
1324.669, 62.688
1325.866, 66.545
1327.063, 50.351
1328.260, 4.150
1329.456, 111.927
1330.653, 84.390
1331.849, 3.131
1333.045, 75.849
1334.240, 2.458
1335.436, 33.778
1336.631, 65.895
1337.826, 2.485
1339.021, 30.055
1340.216, 90.456
1341.411, 43.031
1342.605, 60.590
1343.799, 6.048
1344.993, 0.572
1346.187, 56.901
1347.381, 3.612
1348.574, 76.853
1349.767, 84.004
1350.961, 28.639
1352.153, 74.059
1353.346, 99.441
1354.539, 51.189
1355.731, 140.143
1356.923, 21.418
1358.115, 23.700
1359.307, 103.125
1360.498, 64.423
1361.690, 30.407
1362.881, 36.652
1364.072, 19.116
1365.263, 93.098
1366.453, 72.304
1367.644, 9.523
1368.834, 119.445
1370.024, 74.594
1371.214, 19.261
1372.404, 40.781
1373.593, 2.040
1374.783, 46.878
1375.972, 83.909
1377.161, 2.819
1378.349, 153.320
1379.538, 105.548
1380.726, 129.588
1381.915, 147.798
1383.103, 75.991
1384.290, 133.955
1385.478, 73.920
1386.665, 60.046
1387.853, 104.099
1389.040, 203.890
1390.227, 67.833
1391.413, 153.899
1392.600, 95.723
1393.786, 98.393
1394.972, 143.171
1396.158, 50.989
1397.344, 47.189
1398.530, 121.653
1399.715, 100.625
1400.900, 143.116
1402.085, 89.365
1403.270, 41.775
1404.455, 57.804
1405.639, 100.894
1406.824, 39.766
1408.008, 80.305
1409.192, 62.467
1410.375, 121.755
1411.559, 134.348
1412.742, 70.396
1413.925, 154.417
1415.108, 151.991
1416.291, 34.872
1417.474, 195.545
1418.656, 95.222
1419.839, 5.015
1421.021, 194.151
1422.202, 23.180
1423.384, 105.569
1424.566, 164.541
1425.747, 33.979
1426.928, 38.618
1428.109, 145.394
1429.290, 59.104
1430.470, 137.273
1431.651, 131.963
1432.831, 31.957
1434.011, 141.430
1435.191, 136.853
1436.370, 80.113
1437.550, 137.393
1438.729, 114.600
1439.908, 80.662
1441.087, 150.346
1442.266, 17.754
1443.444, 173.735
1444.623, 87.500
1445.801, 9.715
1446.979, 161.433
1448.157, 56.801
1449.334, 130.003
1450.512, 107.112
1451.689, 110.012
1452.866, 158.899
1454.043, 155.900
1455.220, 72.829
1456.396, 221.907
1457.573, 143.729
1458.749, 111.530
1459.925, 240.576
1461.100, 116.828
1462.276, 121.316
1463.451, 265.962
1464.627, 175.379
1465.802, 166.223
1466.977, 228.787
1468.151, 51.986
1469.326, 214.324
1470.500, 159.159
1471.674, 10.895
1472.848, 216.278
1474.022, 102.101
1475.195, 52.404
1476.369, 220.751
1477.542, 1.894
1478.715, 83.947
1479.888, 318.504
1481.061, 57.429
1482.233, 140.995
1483.405, 139.519
1484.577, 38.007
1485.749, 194.471
1486.921, 104.917
1488.093, 117.372
1489.264, 158.821
1490.435, 36.275
1491.606, 79.848
1492.777, 118.625
1493.948, 93.493
1495.118, 112.147
1496.288, 128.981
1497.459, 55.672
1498.628, 128.418
1499.798, 6.815
1500.968, 1.015
1502.137, 159.831
1503.306, 78.725
1504.475, 64.928
1505.644, 65.642
1506.813, 59.695
1507.981, 81.214
1509.149, 152.961
1510.318, 16.832
1511.485, 126.554
1512.653, 133.948
1513.821, 0.000
##END=



