##NAMES=Talc
##RRUFFID=R050087
##IDEAL CHEMISTRY=Mg_3_Si_4_O_10_(OH)_2_
##LOCALITY=St. Lawrence County, New York, USA
##OWNER=RRUFF
##SOURCE=University of Arizona Mineral Museum
##DESCRIPTION=An aggregate of colorless foliated coarse single crystals
##STATUS=The identification of this mineral has been confirmed by X-ray diffraction and chemical analysis
##URL=rruff.info/R050087
##MEASURED CHEMISTRY=(Mg_.998_Fe_.002_)_3_(Si_.997_Al_.003_)_4_O_10_(OH_.966_F_.034_)_2_
##PIN_ID=M00196
##ORIENTATION=Laser parallel to a* (1 0 0). Fiducial mark perpendicular to laser is parallel to -b [0 -1 0]
95.94800, 0.0000000E+00
97.18200, 156.4316
98.41600, 412.9570
99.64900, 913.8418
100.8830, 1566.869
102.1160, 2199.451
103.3490, 3001.059
104.5820, 3576.674
105.8150, 3721.191
107.0470, 4010.389
108.2800, 4285.986
109.5120, 4470.367
110.7440, 4165.402
111.9760, 3497.254
113.2080, 3037.801
114.4400, 2650.717
115.6710, 2197.053
116.9030, 1639.471
118.1340, 1311.785
119.3650, 778.8555
120.5960, 457.4883
121.8270, 239.5117
123.0580, 47.52734
124.2880, 37.60938
125.5190, 35.12109
126.7490, 46.83008
127.9790, 146.8984
129.2090, 484.4570
130.4390, 768.7695
131.6680, 1156.127
132.8980, 1698.523
134.1270, 2137.193
135.3560, 2251.287
136.5850, 2251.365
137.8140, 2194.895
139.0430, 1946.197
140.2710, 1386.193
141.5000, 1393.812
142.7280, 928.6934
143.9560, 850.8320
145.1840, 719.2207
146.4120, 619.8516
147.6390, 319.7168
148.8670, 273.8516
150.0940, 71.66797
151.3210, 212.4453
152.5490, 111.9375
153.7750, 2.314453
155.0020, 13.49219
156.2290, 26.58984
157.4550, 16.60938
158.6810, 17.54297
159.9080, 178.3945
161.1340, 17.16016
162.3590, 144.8398
163.5850, 34.43359
164.8110, 118.9473
166.0360, 175.6270
167.2610, 113.7109
168.4860, 1.033203
169.7110, 57.91016
170.9360, 307.7734
172.1610, 205.8516
173.3850, 266.3984
174.6100, 160.1797
175.8340, 225.2324
177.0580, 254.0977
178.2820, 319.2539
179.5050, 576.2500
180.7290, 803.8848
181.9520, 1307.758
183.1760, 2411.404
184.3990, 4609.066
185.6220, 7194.770
186.8450, 9083.992
188.0670, 8725.332
189.2900, 8551.783
190.5120, 11158.35
191.7340, 13741.03
192.9560, 15391.81
194.1780, 15637.71
195.4000, 14395.71
196.6220, 12704.82
197.8430, 9862.029
199.0640, 6875.336
200.2860, 4078.725
201.5070, 2526.213
202.7270, 1450.824
203.9480, 1086.439
205.1690, 683.9375
206.3890, 520.9355
207.6090, 403.1895
208.8290, 447.5449
210.0490, 314.8926
211.2690, 406.9414
212.4890, 296.0820
213.7080, 446.3145
214.9280, 160.6328
216.1470, 387.0352
217.3660, 197.5195
218.5850, 529.0859
219.8030, 432.7344
221.0220, 680.4590
222.2400, 557.2617
223.4590, 492.1367
224.6770, 638.0801
225.8950, 823.0859
227.1120, 699.1562
228.3300, 660.2891
229.5480, 762.4785
230.7650, 675.7305
231.9820, 385.0391
233.1990, 416.4043
234.4160, 101.8262
235.6330, 332.3027
236.8490, 99.83398
238.0660, 210.4180
239.2820, 109.0527
240.4980, 225.7363
241.7140, 269.4746
242.9300, 16.91797
244.1460, 20.09766
245.3610, 39.58008
246.5770, 244.8828
247.7920, 71.59180
249.0070, 71.32227
250.2220, 67.22656
251.4370, 80.65234
252.6510, 82.03906
253.8660, 123.1816
255.0800, 28.67578
256.2940, 40.79102
257.5080, 112.4395
258.7220, 109.9629
259.9360, 67.62500
261.1490, 438.9531
262.3630, 138.3145
263.5760, 95.78125
264.7890, 199.4902
266.0020, 135.8770
267.2150, 20.37305
268.4270, 60.03906
269.6400, 66.72266
270.8520, 60.16602
272.0640, 72.81250
273.2760, 80.28711
274.4880, 388.5527
275.7000, 183.4141
276.9120, 316.2734
278.1230, 497.1816
279.3340, 552.1953
280.5450, 799.2773
281.7560, 1038.010
282.9670, 1186.840
284.1780, 1585.877
285.3880, 1650.182
286.5980, 1831.535
287.8090, 2208.930
289.0190, 2276.369
290.2290, 2001.852
291.4380, 2032.373
292.6480, 1415.943
293.8570, 1004.551
295.0670, 715.2109
296.2760, 554.9102
297.4850, 536.6367
298.6930, 256.3906
299.9020, 408.0762
301.1110, 328.6152
302.3190, 233.9180
303.5270, 244.4473
304.7350, 155.9785
305.9430, 34.86914
307.1510, 118.4785
308.3580, 57.55469
309.5660, 182.1270
310.7730, 142.2598
311.9800, 103.7734
313.1870, 135.2402
314.3940, 176.7168
315.6010, 47.69922
316.8070, 99.67578
318.0130, 15.18750
319.2200, 6.035156
320.4260, 78.10352
321.6310, 298.6875
322.8370, 111.5000
324.0430, 202.3359
325.2480, 303.1992
326.4540, 543.0312
327.6590, 598.8770
328.8640, 798.6992
330.0680, 849.5371
331.2730, 717.3457
332.4780, 629.1816
333.6820, 534.0352
334.8860, 692.9082
336.0900, 653.8027
337.2940, 670.7168
338.4980, 463.6504
339.7010, 793.5996
340.9050, 845.5664
342.1080, 797.5527
343.3110, 568.5547
344.5140, 847.5742
345.7170, 903.6074
346.9200, 1235.646
348.1220, 1478.688
349.3240, 1822.602
350.5270, 2223.471
351.7290, 2877.322
352.9310, 3812.123
354.1320, 4669.879
355.3340, 5441.648
356.5350, 5962.434
357.7370, 6584.236
358.9380, 7097.057
360.1390, 7131.893
361.3400, 7116.742
362.5400, 6847.605
363.7410, 6015.484
364.9410, 5259.379
366.1410, 4332.285
367.3410, 3415.207
368.5410, 2771.141
369.7410, 2302.086
370.9400, 1483.043
372.1400, 1273.016
373.3390, 1065.996
374.5380, 1097.986
375.7370, 873.9902
376.9360, 760.0039
378.1350, 765.0273
379.3330, 825.0605
380.5310, 624.1074
381.7300, 728.1602
382.9280, 577.2246
384.1260, 526.3438
385.3230, 551.4258
386.5210, 486.5273
387.7180, 609.2246
388.9160, 591.5996
390.1130, 404.4922
391.3100, 443.3340
392.5060, 259.3867
393.7030, 319.6738
394.9000, 199.3320
396.0960, 89.73047
397.2920, 25.17773
398.4880, 90.30273
399.6840, 166.0625
400.8800, 124.7891
402.0750, 165.3828
403.2710, 92.09180
404.4660, 118.6797
405.6610, 128.9277
406.8560, 36.02344
408.0510, 280.9883
409.2450, 180.8750
410.4400, 182.2168
411.6340, 182.9199
412.8280, 137.9922
414.0220, 151.9980
415.2160, 136.2461
416.4100, 197.0918
417.6030, 213.0195
418.7970, 329.6172
419.9900, 396.9766
421.1830, 446.6719
422.3760, 768.6133
423.5690, 873.9824
424.7610, 1348.342
425.9540, 1517.402
427.1460, 1789.301
428.3380, 1894.658
429.5300, 2025.115
430.7220, 2292.371
431.9140, 2133.725
433.1050, 2122.652
434.2970, 2035.000
435.4880, 1426.078
436.6790, 1467.932
437.8700, 901.5137
439.0610, 867.2891
440.2510, 355.6230
441.4420, 626.9512
442.6320, 696.3789
443.8220, 356.0020
445.0120, 412.7012
446.2020, 709.8320
447.3910, 860.2324
448.5810, 938.0879
449.7700, 615.7988
450.9600, 1066.217
452.1490, 731.2383
453.3370, 710.5566
454.5260, 815.1055
455.7150, 731.6250
456.9030, 733.8496
458.0910, 770.4492
459.2800, 794.5195
460.4670, 831.6445
461.6550, 912.1191
462.8430, 1026.316
464.0300, 1029.861
465.2180, 986.7793
466.4050, 1239.869
467.5920, 1137.557
468.7790, 1278.842
469.9650, 1241.600
471.1520, 1088.910
472.3380, 840.1367
473.5250, 723.4004
474.7110, 502.6562
475.8970, 281.9062
477.0820, 188.1484
478.2680, 218.3848
479.4540, 274.6133
480.6390, 242.8340
481.8240, 252.0508
483.0090, 249.3887
484.1940, 176.4590
485.3780, 254.6523
486.5630, 253.8438
487.7470, 325.0293
488.9320, 252.2031
490.1160, 242.3711
491.3000, 146.5332
492.4830, 373.6875
493.6670, 277.8359
494.8500, 218.9746
496.0340, 374.1074
497.2170, 334.2344
498.4000, 312.3516
499.5820, 166.4648
500.7650, 280.5723
501.9480, 393.6680
503.1300, 297.7598
504.3120, 714.8457
505.4940, 580.9219
506.6760, 604.9922
507.8580, 463.0508
509.0390, 893.1055
510.2210, 297.1523
511.4020, 639.1914
512.5830, 381.2227
513.7640, 550.2461
514.9450, 568.2617
516.1250, 349.2695
517.3060, 768.2695
518.4860, 542.2617
519.6660, 390.2461
520.8460, 482.2227
522.0260, 509.1914
523.2060, 371.1484
524.3850, 303.1016
525.5650, 131.0430
526.7440, 169.9766
527.9230, 140.0430
529.1020, 32.82031
530.2810, 168.7188
531.4590, 258.6133
532.6380, 204.5078
533.8160, 270.4453
534.9940, 282.3906
536.1720, 65.32812
537.3500, 127.2891
538.5270, 57.10938
539.7050, 49.85547
540.8820, 100.7930
542.0590, 153.7227
543.2360, 31.31250
544.4130, 320.2109
545.5900, 5.132813
546.7660, 38.47656
547.9430, 19.00781
549.1190, 100.0156
550.2950, 81.79297
551.4710, 136.2344
552.6470, 176.3047
553.8220, 181.0508
554.9980, 75.71094
556.1730, 62.44922
557.3480, 39.94531
558.5230, 445.7344
559.6980, 94.56641
560.8730, 250.0469
562.0470, 64.34766
563.2220, 211.8086
564.3960, 136.5820
565.5700, 223.9688
566.7440, 72.33984
567.9170, 84.69141
569.0910, 372.0312
570.2640, 180.3594
571.4380, 233.7695
572.6110, 331.9844
573.7840, 81.28516
574.9570, 143.5703
576.1290, 15.84766
577.3020, 86.10156
578.4740, 33.66406
579.6460, 91.67969
580.8180, 323.8477
581.9900, 237.0039
583.1620, 128.1523
584.3330, 35.71484
585.5040, 5.414063
586.6760, 60.42578
587.8470, 43.45703
589.0180, 72.53125
590.1880, 41.58594
591.3590, 211.5156
592.5290, 127.2500
593.7000, 316.1133
594.8700, 328.9141
596.0400, 82.87891
597.2090, 26.69922
598.3790, 60.54297
599.5490, 30.36719
600.7180, 86.19531
601.8870, 20.94922
603.0560, 25.78125
604.2250, 1.097656
605.3940, 71.51562
606.5620, 35.35156
607.7300, 92.14453
608.8990, 237.9180
610.0670, 81.72656
611.2350, 201.5117
612.4020, 187.2930
613.5700, 194.7305
614.7370, 215.4883
615.9050, 238.2344
617.0720, 247.9688
618.2390, 286.7461
619.4060, 308.4375
620.5720, 356.1602
621.7390, 421.8672
622.9050, 450.5625
624.0710, 520.2852
625.2370, 542.4922
626.4030, 556.4375
627.5690, 582.4922
628.7340, 603.1836
629.9000, 601.8672
631.0650, 717.5391
632.2300, 615.1953
633.3950, 639.8438
634.5600, 887.4805
635.7240, 640.1055
636.8890, 773.7227
638.0530, 652.3242
639.2170, 636.9180
640.3810, 498.5039
641.5450, 677.0742
642.7080, 998.6367
643.8720, 991.1953
645.0350, 1030.734
646.1980, 1048.270
647.3610, 1085.793
648.5240, 1083.617
649.6870, 935.8945
650.8490, 1031.469
652.0120, 1296.059
653.1740, 1200.641
654.3360, 1399.227
655.4980, 1703.797
656.6600, 1426.363
657.8210, 2043.914
658.9830, 2360.480
660.1440, 2711.035
661.3050, 3416.586
662.4660, 3698.121
663.6270, 4697.652
664.7870, 5742.176
665.9480, 7429.637
667.1080, 8856.133
668.2680, 10925.61
669.4280, 13437.35
670.5880, 15642.82
671.7480, 17211.27
672.9070, 19104.71
674.0670, 20029.15
675.2260, 20790.63
676.3850, 20364.08
677.5440, 19425.40
678.7030, 17605.90
679.8610, 15102.07
681.0200, 12725.13
682.1780, 10558.52
683.3360, 8635.258
684.4940, 7316.621
685.6520, 5754.574
686.8090, 4800.016
687.9670, 4002.648
689.1240, 3408.715
690.2810, 2879.531
691.4380, 2165.887
692.5950, 1715.238
693.7520, 1847.578
694.9080, 1467.250
696.0650, 1530.691
697.2210, 1385.180
698.3770, 1203.480
699.5330, 862.5312
700.6880, 904.8125
701.8440, 833.7539
702.9990, 873.4375
704.1550, 505.6836
705.3100, 534.9258
706.4650, 658.4688
707.6190, 787.1562
708.7740, 423.3789
709.9290, 471.5898
711.0830, 464.7930
712.2370, 478.4570
713.3910, 602.4336
714.5450, 411.6133
715.6980, 641.0469
716.8520, 537.6953
718.0050, 70.60156
719.1580, 291.3047
720.3110, 524.4375
721.4640, 149.5664
722.6170, 402.5781
723.7700, 228.3867
724.9220, 269.1094
726.0740, 104.3867
727.2260, 137.3906
728.3780, 221.9258
729.5300, 19.58594
730.6810, 138.2188
731.8330, 52.16016
732.9840, 401.2031
734.1350, 47.24609
735.2860, 524.7773
736.4370, 268.4961
737.5880, 127.7422
738.7380, 175.5312
739.8880, 273.0859
741.0390, 198.9688
742.1890, 208.6602
743.3380, 134.6797
744.4880, 63.05078
745.6380, 393.9258
746.7870, 100.5000
747.9360, 125.5078
749.0850, 308.9844
750.2340, 140.9375
751.3830, 7.117188
752.5310, 242.8164
753.6800, 235.9219
754.8280, 78.92188
755.9760, 81.83594
757.1240, 78.78906
758.2720, 179.6367
759.4190, 227.5312
760.5670, 105.5117
761.7140, 525.9805
762.8610, 216.8516
764.0080, 20.23438
765.1550, 95.03125
766.3020, 437.4023
767.4480, 312.2891
768.5950, 147.1211
769.7410, 187.9453
770.8870, 162.7578
772.0330, 161.7578
773.1780, 212.3984
774.3240, 228.3008
775.4690, 491.0898
776.6140, 523.3281
777.7590, 535.1094
778.9040, 798.2188
780.0490, 697.0781
781.1940, 1073.508
782.3380, 953.2578
783.4820, 1103.766
784.6260, 1099.500
785.7700, 1220.016
786.9140, 1032.895
788.0580, 1145.520
789.2010, 1230.695
790.3450, 951.3945
791.4880, 1076.816
792.6310, 998.5039
793.7730, 893.1797
794.9160, 788.8516
796.0590, 791.5508
797.2010, 582.2070
798.3430, 575.3984
799.4850, 244.0352
800.6270, 262.6602
801.7690, 275.1562
802.9100, 272.7695
804.0520, 313.3750
805.1930, 362.9805
806.3340, 315.7109
807.4750, 256.1562
808.6160, 288.7383
809.7560, 111.3125
810.8970, 202.8828
812.0370, 91.44141
813.1770, 63.00781
814.3170, 275.5039
815.4570, 65.24219
816.5960, 121.7383
817.7360, 290.2383
818.8750, 111.7969
820.0140, 483.2812
821.1530, 111.7656
822.2920, 401.5977
823.4310, 374.2461
824.5690, 297.0156
825.7070, 446.5156
826.8460, 190.0078
827.9840, 138.5000
829.1220, 425.0391
830.2590, 417.5156
831.3970, 273.9805
832.5340, 408.4570
833.6710, 382.9336
834.8080, 220.7109
835.9450, 265.6836
837.0820, 323.1914
838.2190, 227.6914
839.3550, 269.2109
840.4910, 376.7812
841.6270, 211.3477
842.7630, 522.9102
843.8990, 586.4648
845.0350, 494.0156
846.1700, 312.5586
847.3060, 201.0938
848.4410, 12.36328
849.5760, 50.43359
850.7100, 376.7148
851.8450, 269.2578
852.9800, 225.7930
854.1140, 492.3320
855.2480, 345.7188
856.3820, 383.2617
857.5160, 418.7969
858.6500, 370.8984
859.7830, 395.2305
860.9170, 364.3750
862.0500, 400.9102
863.1830, 378.4414
864.3160, 428.9688
865.4480, 375.2969
866.5810, 451.9102
867.7130, 275.5312
868.8460, 272.0312
869.9780, 230.6328
871.1100, 238.0977
872.2410, 257.6914
873.3730, 217.1758
874.5050, 246.8750
875.6360, 190.4648
876.7670, 148.0469
877.8980, 186.6367
879.0290, 6.218750
880.1590, 434.7969
881.2900, 343.3398
882.4200, 540.9102
883.5500, 146.5234
884.6800, 126.9453
885.8100, 334.4102
886.9400, 189.8711
888.0690, 377.6484
889.1990, 67.09375
890.3280, 88.52344
891.4570, 33.04688
892.5860, 2.347656
893.7140, 6.722656
894.8430, 266.0820
895.9710, 85.43359
897.1000, 105.2227
898.2280, 218.0469
899.3560, 95.33203
900.4830, 38.48438
901.6110, 34.76562
902.7380, 94.00000
903.8660, 300.2344
904.9930, 128.4570
906.1200, 284.6719
907.2460, 218.8828
908.3730, 97.08203
909.5000, 79.27344
910.6260, 124.4805
911.7520, 38.68750
912.8780, 215.8789
914.0040, 48.05859
915.1290, 81.23828
916.2550, 22.43750
917.3800, 125.6289
918.5050, 16.81250
919.6300, 219.9805
920.7550, 152.8359
921.8800, 66.25000
923.0040, 122.6719
924.1290, 83.67969
925.2530, 125.2500
926.3770, 39.82812
927.5010, 222.0547
928.6250, 132.9414
929.7480, 266.8203
930.8720, 76.30859
931.9950, 344.5273
933.1180, 4.617188
934.2410, 301.2148
935.3640, 283.0391
936.4860, 8.863281
937.6090, 274.6641
938.7310, 131.4648
939.8530, 96.25781
940.9750, 223.0430
942.0970, 272.8203
943.2180, 182.6016
944.3400, 229.7539
945.4610, 245.1523
946.5820, 216.9258
947.7030, 120.6328
948.8240, 208.3867
949.9450, 0.1406250
951.0650, 344.6719
952.1860, 353.4023
953.3060, 75.12891
954.4260, 135.8477
955.5460, 452.5586
956.6650, 33.26172
957.7850, 54.95703
958.9040, 143.3555
960.0230, 191.2344
961.1420, 218.8203
962.2610, 414.3984
963.3800, 72.97266
964.4990, 368.5391
965.6170, 160.0977
966.7350, 416.7070
967.8530, 249.2695
968.9710, 41.82031
970.0890, 24.38281
971.2070, 223.9297
972.3240, 114.4727
973.4410, 251.0117
974.5580, 232.5391
975.6750, 217.0742
976.7920, 280.6055
977.9090, 254.1250
979.0250, 135.6406
980.1410, 229.1523
981.2580, 140.6484
982.3740, 164.1719
983.4890, 338.7344
984.6050, 433.1094
985.7200, 513.5859
986.8360, 468.5391
987.9510, 443.8906
989.0660, 312.0000
990.1810, 231.4883
991.2950, 218.9609
992.4100, 150.8047
993.5240, 166.8242
994.6390, 156.3516
995.7530, 223.8008
996.8660, 210.2656
997.9800, 416.5977
999.0940, 249.1523
1000.207, 336.6016
1001.320, 420.0469
1002.433, 199.4883
1003.546, 377.9219
1004.659, 433.3477
1005.772, 260.7695
1006.884, 322.4609
1007.996, 464.8633
1009.108, 549.2656
1010.220, 563.6562
1011.332, 434.0391
1012.444, 757.4219
1013.555, 895.8438
1014.666, 1096.207
1015.777, 895.5664
1016.888, 1004.918
1017.999, 1138.215
1019.110, 1241.555
1020.220, 1215.883
1021.331, 830.2070
1022.441, 870.5273
1023.551, 732.6602
1024.661, 505.8906
1025.770, 436.1953
1026.880, 168.4531
1027.989, 260.7969
1029.098, 332.0781
1030.207, 282.5391
1031.316, 494.9570
1032.425, 407.1094
1033.533, 424.3242
1034.642, 563.8594
1035.750, 363.5977
1036.858, 466.8008
1037.966, 357.0547
1039.073, 245.3047
1040.181, 795.5469
1041.288, 558.7891
1042.396, 696.9922
1043.503, 868.8281
1044.610, 803.0508
1045.716, 993.8164
1046.823, 1292.031
1047.929, 1461.902
1049.036, 1860.539
1050.142, 1823.066
1051.248, 1959.266
1052.353, 2129.699
1053.459, 2075.652
1054.564, 1482.059
1055.670, 1418.086
1056.775, 1034.352
1057.880, 892.0586
1058.985, 751.2305
1060.089, 493.6680
1061.194, 692.6562
1062.298, 727.8203
1063.402, 656.9844
1064.506, 645.6602
1065.610, 649.9219
1066.713, 638.9492
1067.817, 575.1172
1068.920, 626.2656
1070.023, 465.5430
1071.126, 357.6914
1072.229, 684.8320
1073.332, 392.9648
1074.435, 575.1016
1075.537, 294.1914
1076.639, 420.3281
1077.741, 296.1680
1078.843, 306.3008
1079.945, 578.4258
1081.046, 847.5312
1082.148, 727.6758
1083.249, 648.5859
1084.350, 590.7266
1085.451, 558.0508
1086.551, 524.9453
1087.652, 529.0859
1088.752, 402.2188
1089.853, 339.0078
1090.953, 272.9727
1092.053, 260.8320
1093.152, 300.5742
1094.252, 170.1094
1095.351, 448.2422
1096.451, 177.3203
1097.550, 213.4531
1098.649, 42.69531
1099.748, 123.4062
1100.846, 204.5117
1101.945, 308.9414
1103.043, 78.54688
1104.141, 159.6523
1105.239, 162.7539
1106.337, 100.8594
1107.434, 84.16016
1108.532, 137.4258
1109.629, 58.37109
1110.726, 222.4805
1111.823, 117.3906
1112.920, 422.7031
1114.017, 24.18750
1115.113, 1.894531
1116.210, 97.02344
1117.306, 203.9961
1118.402, 87.05469
1119.498, 431.1133
1120.593, 170.6211
1121.689, 334.6836
1122.784, 212.7500
1123.879, 477.8125
1124.974, 517.8828
1126.069, 414.9492
1127.164, 611.0195
1128.259, 172.0977
1129.353, 264.0156
1130.447, 431.0977
1131.541, 125.5742
1132.635, 398.6562
1133.729, 207.7422
1134.822, 196.8320
1135.916, 345.9219
1137.009, 125.0117
1138.102, 40.10938
1139.195, 424.2109
1140.288, 131.3047
1141.380, 555.4102
1142.473, 288.5195
1143.565, 570.6289
1144.657, 248.7422
1145.749, 455.8633
1146.841, 139.9844
1147.932, 55.11719
1149.024, 94.25000
1150.115, 334.4297
1151.206, 258.6133
1152.297, 248.8047
1153.388, 219.0000
1154.479, 295.2031
1155.569, 71.40625
1156.659, 457.6211
1157.750, 363.8516
1158.839, 286.0898
1159.929, 73.33984
1161.019, 332.5977
1162.108, 253.8633
1163.198, 78.83594
1164.287, 121.4336
1165.376, 3.292969
1166.465, 350.9922
1167.553, 404.2852
1168.642, 122.5820
1169.730, 154.8867
1170.818, 393.2031
1171.906, 353.5234
1172.994, 380.8477
1174.082, 79.81641
1175.170, 265.4766
1176.257, 109.7773
1177.344, 57.08594
1178.431, 233.4062
1179.518, 130.2695
1180.605, 260.9961
1181.691, 233.2656
1182.778, 274.5469
1183.864, 84.16016
1184.950, 97.09375
1186.036, 190.3945
1187.122, 110.7109
1188.207, 136.0742
1189.292, 106.4766
1190.378, 200.8906
1191.463, 13.67188
1192.548, 50.75391
1193.632, 240.1992
1194.717, 84.34766
1195.801, 102.9102
1196.886, 237.4805
1197.970, 291.8945
1199.054, 159.3164
1200.137, 468.7500
1201.221, 287.1992
1202.305, 155.6562
1203.388, 198.1289
1204.471, 59.61719
1205.554, 40.89062
1206.637, 142.5898
1207.719, 16.91797
1208.802, 180.5664
1209.884, 84.06641
1210.966, 3.421875
1212.048, 133.0938
1213.130, 276.6211
1214.212, 323.1641
1215.293, 319.7227
1216.374, 139.2930
1217.456, 261.8789
1218.536, 167.4727
1219.617, 263.0820
1220.698, 416.7070
1221.778, 263.3477
1222.859, 357.0469
1223.939, 182.7617
1225.019, 247.4844
1226.099, 124.2188
1227.178, 330.9727
1228.258, 45.25781
1229.337, 240.4531
1230.417, 293.2227
1231.496, 65.99219
1232.574, 439.7812
1233.653, 34.57031
1234.732, 35.36719
1235.810, 259.1875
1236.888, 59.97656
1237.966, 336.8398
1239.044, 192.6719
1240.122, 131.5273
1241.199, 231.3945
1242.277, 212.2734
1243.354, 272.1758
1244.431, 304.8398
1245.508, 394.4531
1246.585, 353.1445
1247.661, 253.3438
1248.738, 254.3242
1249.814, 165.6719
1250.890, 316.2773
1251.966, 104.2422
1253.042, 465.2266
1254.117, 105.2227
1255.193, 60.24219
1256.268, 389.2812
1257.343, 92.33984
1258.418, 102.5859
1259.493, 351.4648
1260.567, 31.46484
1261.642, 197.6133
1262.716, 171.7070
1263.790, 425.8203
1264.864, 523.9609
1265.938, 382.1133
1267.011, 251.2852
1268.085, 251.2070
1269.158, 344.4219
1270.231, 242.6562
1271.304, 365.9102
1272.377, 297.1914
1273.450, 323.2812
1274.522, 481.8125
1275.594, 434.1562
1276.666, 388.5195
1277.738, 599.9023
1278.810, 380.3086
1279.882, 511.7422
1280.953, 311.1875
1282.025, 285.6680
1283.096, 457.1641
1284.167, 289.6836
1285.238, 610.2266
1286.308, 598.7930
1287.379, 848.3828
1288.449, 697.0000
1289.519, 536.6328
1290.589, 625.2930
1291.659, 711.9805
1292.729, 590.2539
1293.798, 523.9883
1294.868, 1003.066
1295.937, 844.8516
1297.006, 862.6602
1298.075, 540.4961
1299.143, 827.3594
1300.212, 902.2500
1301.280, 939.1641
1302.348, 760.1094
1303.416, 904.3672
1304.484, 789.3672
1305.552, 955.3945
1306.620, 1044.449
1307.687, 763.5312
1308.754, 459.1211
1309.821, 679.2656
1310.888, 933.4453
1311.955, 624.6484
1313.021, 773.1211
1314.088, 566.3867
1315.154, 498.6914
1316.220, 524.0273
1317.286, 535.3945
1318.352, 585.8008
1319.417, 715.2422
1320.483, 426.8906
1321.548, 337.4062
1322.613, 561.9531
1323.678, 108.9727
1324.743, 298.0312
1325.807, 252.6484
1326.872, 293.2891
1327.936, 269.9531
1329.000, 323.6445
1330.064, 535.3516
1331.128, 344.0898
1332.191, 388.8516
1333.255, 542.6367
1334.318, 285.4961
1335.381, 424.3359
1336.444, 430.4922
1337.507, 218.3828
1338.569, 423.2930
1339.632, 468.2578
1340.694, 626.2188
1341.756, 507.2109
1342.818, 558.2344
1343.880, 276.2773
1344.941, 380.3516
1346.003, 488.4531
1347.064, 196.5859
1348.125, 112.7422
1349.186, 553.8867
1350.247, 353.0586
1351.308, 414.2500
1352.368, 724.4805
1353.428, 233.7383
1354.489, 396.0195
1355.549, 427.3359
1356.608, 296.9688
1357.668, 326.3633
1358.727, 347.7852
1359.787, 321.4727
1360.846, 463.1133
1361.905, 340.6289
1362.964, 221.1797
1364.022, 173.7578
1365.081, 313.1797
1366.139, 295.8320
1367.197, 441.5117
1368.255, 539.2188
1369.313, 461.9688
1370.371, 692.7500
1371.428, 221.5352
1372.486, 483.3672
1373.543, 386.2500
1374.600, 249.8086
1375.657, 322.1367
1376.713, 386.1055
1377.770, 216.6680
1378.826, 309.7148
1379.882, 138.7930
1380.938, 142.9102
1381.994, 339.0586
1383.050, 96.24609
1384.106, 343.4688
1385.161, 296.7227
1386.216, 279.1719
1387.271, 452.4961
1388.326, 194.4648
1389.381, 218.8633
1390.435, 184.3008
1391.490, 43.77344
1392.544, 88.28516
1393.598, 235.8359
1394.652, 248.4258
1395.705, 374.0547
1396.759, 316.9297
1397.812, 260.4297
1398.866, 203.1758
1399.919, 174.9688
1400.972, 173.8008
1402.024, 128.6797
1403.077, 264.5977
1404.129, 291.5625
1405.181, 304.5703
1406.233, 151.6250
1407.285, 483.7266
1408.337, 155.8750
1409.389, 374.0625
1410.440, 42.30469
1411.491, 221.6016
1412.542, 333.9414
1413.593, 257.3359
1414.644, 76.78125
1415.695, 127.2773
1416.745, 186.8242
1417.795, 364.4297
1418.845, 153.9062
1419.895, 292.8281
1420.945, 174.6172
1421.995, 236.4766
1423.044, 420.4023
1424.093, 421.3867
1425.142, 596.4336
1426.191, 246.5547
1427.240, 683.7422
1428.289, 1078.000
1429.337, 490.3359
1430.385, 655.7734
1431.433, 899.2891
1432.481, 873.8906
1433.529, 1362.574
1434.577, 1414.352
1435.624, 1167.262
1436.672, 1749.266
1437.719, 1443.375
1438.766, 1403.594
1439.812, 1394.957
1440.859, 1583.445
1441.905, 1640.066
1442.952, 1606.734
1443.998, 1639.898
1445.044, 1572.086
1446.090, 1455.430
1447.135, 1547.898
1448.181, 1464.492
1449.226, 1406.805
1450.271, 1529.254
1451.316, 1466.285
1452.361, 1778.289
1453.405, 1411.883
1454.450, 1540.543
1455.494, 1352.273
1456.538, 1432.062
1457.582, 1592.922
1458.626, 1187.820
1459.670, 1316.785
1460.713, 1254.797
1461.757, 1320.863
1462.800, 1285.984
1463.843, 1101.164
1464.886, 1442.395
1465.928, 1091.711
1466.971, 831.1055
1468.013, 841.5742
1469.055, 987.1016
1470.097, 867.7227
1471.139, 834.4062
1472.181, 1089.145
1473.222, 609.9453
1474.263, 523.4023
1475.305, 397.2070
1476.346, 582.1719
1477.386, 462.1953
1478.427, 688.2812
1479.468, 604.4297
1480.508, 429.7031
1481.548, 321.0508
1482.588, 291.4688
1483.628, 470.9492
1484.668, 461.5000
1485.707, 538.1094
1486.747, 540.4180
1487.786, 485.5273
1488.825, 436.3398
1489.864, 384.2148
1490.902, 224.1562
1491.941, 309.1562
1492.979, 505.2344
1494.017, 269.3750
1495.055, 330.5742
1496.093, 54.25000
1497.131, 419.4922
1498.168, 301.8125
1499.206, 361.1875
1500.243, 543.6172
1501.280, 495.0938
1502.317, 574.9727
1503.354, 258.1992
1504.390, 589.8281
1505.426, 396.4883
1506.463, 321.1836
1507.499, 354.8984
1508.535, 253.7617
1509.570, 316.2812
1510.606, 261.0938
1511.641, 325.8945
1512.676, 458.8008
1513.711, 265.8242
1514.746, 514.9570
1515.781, 405.1953
1516.816, 396.5469
1517.850, 439.0156
1518.884, 247.6016
1519.918, 114.3047
1520.952, 244.1250
1521.986, 149.0703
1523.019, 305.1289
1524.053, 466.5508
1525.086, 309.1055
1526.119, 194.7969
1527.152, 301.6328
1528.185, 457.5977
1529.217, 668.7188
1530.250, 402.9922
1531.282, 313.4062
1532.314, 448.9883
1533.346, 352.7266
1534.377, 409.7070
1535.409, 464.9531
1536.440, 249.3984
1537.472, 486.0469
1538.503, 354.9102
1539.534, 295.0078
1540.564, 412.3633
1541.595, 205.9883
1542.625, 280.9141
1543.656, 345.1523
1544.686, 322.7227
1545.716, 300.6484
1546.745, 295.6680
1547.775, 264.9297
1548.804, 236.7344
1549.834, 216.2656
1550.863, 196.2617
1551.892, 176.7695
1552.920, 157.8242
1553.949, 139.4688
1554.977, 121.7539
1556.006, 104.7422
1557.034, 88.50000
1558.062, 73.10547
1559.089, 58.65234
1560.117, 45.24219
1561.144, 33.00000
1562.172, 22.09375
1563.199, 12.71875
1564.226, 5.117188
1565.252, 0.3945310
1566.279, 3.382813
1567.305, 3.273438
1568.332, 0.7890630
1569.358, 7.855469
1570.384, 8.906250
1571.409, 0.0000000E+00
##END=



