##NAMES=Wavellite
##RRUFFID=R040176
##IDEAL CHEMISTRY=Al_3_(PO_4_)_2_(OH)_3_&#183;5H_2_O
##LOCALITY=Montgomery County, Arkansas, USA
##OWNER=RRUFF
##SOURCE=University of Arizona Mineral Museum
##DESCRIPTION=Pale green radial aggregates
##STATUS=The identification of this mineral has been confirmed by X-ray diffraction and chemical analysis
##URL=rruff.info/R040176
##MEASURED CHEMISTRY=(Al_0.88_V_0.03_)_3_(P_0.97_O_4_)_2_((OH)_1.74_F_0.26_)_3_Â·5H_2_O
##PIN_ID=M00066
##ORIENTATION=Laser parallel to b* (0 1 0). Fiducial mark perpendicular to laser is parallel to c [0 0 1]
91.981, 0.000
93.375, 95.870
94.768, 711.883
96.161, 1589.470
97.554, 2797.704
98.947, 4139.104
100.340, 4951.705
101.732, 4977.300
103.124, 4651.336
104.516, 3782.194
105.908, 3105.295
107.300, 2783.037
108.691, 2275.085
110.082, 2478.377
111.473, 2811.660
112.864, 3493.940
114.254, 4539.391
115.644, 5672.164
117.034, 6447.586
118.424, 6833.006
119.813, 6692.509
121.203, 6718.963
122.592, 5988.061
123.981, 5352.359
125.369, 4719.307
126.758, 3889.260
128.146, 3356.521
129.534, 2763.766
130.922, 2485.716
132.309, 1967.078
133.696, 1792.613
135.083, 1659.555
136.470, 2044.637
137.857, 2035.472
139.243, 2377.887
140.630, 2366.380
142.016, 2516.914
143.401, 2615.467
144.787, 2715.004
146.172, 2786.484
147.557, 2727.849
148.942, 2588.045
150.327, 2279.029
151.711, 2001.756
153.096, 1715.193
154.480, 1705.291
155.863, 1503.971
157.247, 1421.162
158.630, 1337.838
160.013, 1078.979
161.396, 773.569
162.779, 652.593
164.161, 523.034
165.544, 256.879
166.926, 141.115
168.308, 23.453
169.689, 112.296
171.070, 282.966
172.452, 282.292
173.833, 349.287
175.213, 465.041
176.594, 535.663
177.974, 555.992
179.354, 533.997
180.734, 517.618
182.114, 418.859
183.493, 275.724
184.872, 69.780
186.251, 384.642
187.630, 679.931
189.008, 735.611
190.387, 859.785
191.765, 962.593
193.143, 665.876
194.520, 517.466
195.898, 249.489
197.275, 247.903
198.652, 280.484
200.029, 589.170
201.405, 978.954
202.782, 1569.833
204.158, 2458.811
205.534, 4167.883
206.909, 6132.084
208.285, 7769.416
209.660, 9441.879
211.035, 10152.483
212.410, 9385.243
213.784, 8448.152
215.159, 6715.877
216.533, 5097.275
217.907, 3794.164
219.281, 2754.546
220.654, 1959.556
222.027, 1328.612
223.400, 1142.804
224.773, 997.129
226.146, 820.584
227.518, 824.166
228.891, 773.873
230.263, 768.701
231.634, 707.647
233.006, 799.709
234.377, 801.885
235.748, 947.172
237.119, 877.568
238.490, 1132.073
239.860, 1557.683
241.231, 1576.398
242.601, 1793.216
243.970, 2037.135
245.340, 2158.154
246.709, 2301.275
248.079, 2476.494
249.448, 2780.812
250.816, 2727.227
252.185, 3144.736
253.553, 3258.341
254.921, 3498.038
256.289, 3711.827
257.657, 3599.936
259.024, 3628.044
260.391, 3685.501
261.758, 3633.550
263.125, 3578.750
264.492, 3827.807
265.858, 3941.519
267.224, 4245.746
268.590, 4921.361
269.956, 5374.256
271.321, 6222.360
272.687, 7067.619
274.052, 7865.007
275.416, 8501.500
276.781, 9082.223
278.146, 9523.655
279.510, 9848.077
280.874, 10014.502
282.237, 10029.447
283.601, 9965.104
284.964, 9755.931
286.327, 9431.972
287.690, 9460.445
289.053, 8893.871
290.416, 8252.851
291.778, 7826.527
293.140, 6875.279
294.502, 6400.006
295.863, 5518.639
297.225, 5170.362
298.586, 4964.549
299.947, 5004.199
301.308, 5124.062
302.668, 5460.365
304.029, 6103.491
305.389, 7180.299
306.749, 8246.454
308.108, 9450.111
309.468, 11368.487
310.827, 12719.963
312.186, 13893.027
313.545, 14656.695
314.903, 14935.458
316.262, 14086.307
317.620, 12819.240
318.978, 11524.623
320.336, 10192.345
321.693, 8904.706
323.051, 7830.206
324.408, 6940.680
325.765, 5999.057
327.121, 5361.519
328.478, 4811.385
329.834, 4286.709
331.190, 3963.414
332.546, 3573.837
333.902, 3209.231
335.257, 3097.027
336.612, 2781.534
337.967, 2668.039
339.322, 2672.072
340.677, 2791.405
342.031, 2925.065
343.385, 3167.225
344.739, 3494.979
346.093, 3853.111
347.446, 4376.167
348.799, 4918.436
350.153, 5520.744
351.505, 6202.090
352.858, 6742.472
354.210, 7128.887
355.563, 7475.332
356.915, 7389.804
358.267, 7380.305
359.618, 7087.828
360.969, 6463.374
362.321, 6119.941
363.672, 5714.529
365.022, 5470.135
366.373, 5217.768
367.723, 5077.260
369.073, 4952.089
370.423, 4982.775
371.773, 5107.488
373.122, 5203.240
374.471, 5473.006
375.821, 5918.793
377.169, 6044.600
378.518, 6521.489
379.866, 6656.398
381.215, 7112.334
382.563, 7646.295
383.910, 7980.293
385.258, 8257.314
386.605, 8642.365
387.952, 9029.446
389.299, 8833.610
390.646, 9414.813
391.992, 9270.037
393.339, 9489.306
394.685, 9549.653
396.031, 9644.030
397.376, 10051.473
398.722, 9729.946
400.067, 10479.463
401.412, 10487.043
402.757, 10566.648
404.101, 10863.344
405.446, 10316.049
406.790, 9651.781
408.134, 8990.561
409.478, 8182.363
410.821, 7362.207
412.165, 6244.105
413.508, 5163.012
414.851, 4542.001
416.193, 3749.021
417.536, 3157.049
418.878, 2682.088
420.220, 2398.179
421.562, 2137.323
422.904, 1869.251
424.245, 1721.682
425.586, 1605.869
426.927, 1418.050
428.268, 1553.257
429.609, 1176.454
430.949, 1041.639
432.289, 1169.805
433.629, 1038.958
434.969, 692.096
436.309, 754.214
437.648, 433.312
438.987, 452.388
440.326, 181.462
441.665, 26.487
443.003, 59.490
444.342, 20.440
445.680, 21.660
447.018, 93.811
448.355, 118.051
449.693, 212.392
451.030, 156.884
452.367, 135.499
453.704, 97.774
455.041, 18.435
456.377, 20.588
457.713, 130.638
459.049, 133.605
460.385, 139.683
461.721, 42.868
463.056, 7.155
464.391, 58.622
465.726, 31.337
467.061, 269.033
468.395, 49.718
469.730, 127.387
471.064, 174.044
472.398, 48.688
473.731, 251.312
475.065, 105.924
476.398, 154.521
477.731, 111.101
479.064, 60.665
480.397, 19.793
481.729, 73.695
483.062, 71.162
484.394, 5.607
485.725, 129.009
487.057, 12.609
488.389, 108.718
489.720, 50.024
491.051, 85.701
492.382, 93.519
493.712, 20.585
495.043, 1.698
496.373, 21.164
497.703, 24.755
499.032, 5.229
500.362, 75.434
501.691, 32.211
503.020, 56.227
504.349, 21.758
505.678, 156.367
507.007, 184.053
508.335, 166.779
509.663, 184.479
510.991, 240.148
512.319, 344.791
513.646, 271.401
514.973, 343.982
516.300, 308.533
517.627, 642.053
518.954, 543.540
520.280, 528.997
521.607, 882.422
522.933, 822.813
524.259, 984.252
525.584, 1173.563
526.910, 1225.929
528.235, 1621.188
529.560, 1651.726
530.885, 1887.120
532.209, 2016.934
533.534, 2087.358
534.858, 2498.258
536.182, 2547.297
537.506, 2621.045
538.829, 2622.711
540.152, 2725.604
541.476, 2608.551
542.799, 2739.578
544.121, 2374.336
545.444, 2447.305
546.766, 2279.844
548.088, 2241.780
549.410, 2182.176
550.732, 2174.046
552.053, 1903.650
553.375, 1938.063
554.696, 1875.496
556.017, 1626.744
557.337, 1700.868
558.658, 1745.161
559.978, 1498.329
561.298, 1402.366
562.618, 1499.020
563.938, 1308.826
565.257, 1321.779
566.576, 1428.079
567.895, 1057.790
569.214, 1245.864
570.533, 1296.967
571.851, 1301.877
573.170, 1117.306
574.488, 1191.657
575.805, 1237.429
577.123, 1322.188
578.440, 1288.875
579.758, 1444.520
581.075, 1632.892
582.391, 1589.126
583.708, 1986.866
585.024, 1932.473
586.341, 2125.094
587.657, 2491.271
588.972, 2716.303
590.288, 3000.354
591.603, 3080.604
592.918, 3381.388
594.233, 3390.090
595.548, 3835.334
596.863, 4056.303
598.177, 4201.730
599.491, 4367.347
600.805, 4652.322
602.119, 4871.539
603.432, 5282.363
604.746, 5491.564
606.059, 5916.732
607.372, 5989.743
608.685, 6184.313
609.997, 6604.242
611.309, 6702.213
612.621, 6820.211
613.933, 6889.169
615.245, 7030.904
616.557, 7189.891
617.868, 7390.578
619.179, 7357.778
620.490, 7588.154
621.801, 7265.232
623.111, 7530.550
624.421, 7411.252
625.731, 7383.664
627.041, 6966.630
628.351, 7429.928
629.660, 6673.169
630.970, 6673.867
632.279, 6737.990
633.588, 6128.058
634.896, 5987.066
636.205, 5382.018
637.513, 5066.568
638.821, 4677.744
640.129, 4415.324
641.437, 4144.782
642.744, 3949.280
644.051, 3365.884
645.358, 3266.052
646.665, 3084.539
647.972, 2669.214
649.278, 2716.827
650.584, 2463.539
651.890, 2198.988
653.196, 2328.495
654.502, 2132.472
655.807, 2118.949
657.113, 2101.645
658.418, 1707.263
659.722, 1940.934
661.027, 1687.940
662.331, 1388.783
663.636, 1596.521
664.940, 1340.200
666.244, 1054.819
667.547, 1283.378
668.851, 1074.877
670.154, 1181.316
671.457, 929.696
672.760, 725.016
674.062, 945.276
675.365, 608.478
676.667, 658.619
677.969, 396.700
679.271, 644.724
680.572, 348.687
681.874, 186.589
683.175, 348.425
684.476, 422.199
685.777, 288.917
687.077, 104.018
688.378, 28.596
689.678, 291.072
690.978, 119.488
692.278, 177.830
693.577, 168.289
694.877, 212.783
696.176, 107.793
697.475, 101.726
698.774, 58.583
700.072, 176.615
701.371, 90.321
702.669, 65.949
703.967, 150.505
705.265, 16.854
706.562, 138.809
707.860, 5.999
709.157, 163.918
710.454, 54.569
711.751, 115.626
713.047, 32.013
714.344, 24.436
715.640, 104.003
716.936, 26.273
718.232, 209.661
719.527, 180.312
720.823, 22.227
722.118, 66.832
723.413, 21.858
724.708, 47.874
726.002, 98.396
727.297, 119.931
728.591, 203.804
729.885, 29.742
731.179, 107.209
732.472, 49.099
733.766, 46.919
735.059, 44.334
736.352, 23.302
737.645, 4.858
738.937, 185.330
740.230, 198.749
741.522, 72.885
742.814, 78.360
744.106, 82.547
745.397, 326.985
746.689, 48.069
747.980, 66.096
749.271, 89.065
750.562, 134.983
751.853, 181.852
753.143, 30.326
754.433, 244.407
755.723, 189.096
757.013, 39.757
758.303, 301.389
759.592, 58.982
760.881, 227.544
762.170, 109.095
763.459, 239.642
764.748, 268.212
766.036, 21.793
767.325, 415.369
768.613, 193.906
769.901, 342.420
771.188, 243.911
772.476, 258.409
773.763, 409.915
775.050, 84.431
776.337, 368.928
777.624, 304.404
778.910, 370.846
780.196, 179.256
781.482, 495.633
782.768, 192.977
784.054, 302.287
785.339, 244.563
786.625, 322.812
787.910, 158.025
789.195, 463.208
790.479, 191.359
791.764, 243.479
793.048, 224.569
794.332, 155.649
795.616, 258.701
796.900, 107.724
798.183, 264.730
799.467, 75.707
800.750, 87.674
802.033, 258.613
803.316, 1.529
804.598, 199.451
805.880, 67.614
807.163, 277.276
808.445, 368.155
809.726, 82.030
811.008, 103.890
812.289, 84.740
813.570, 94.429
814.851, 121.367
816.132, 149.147
817.413, 83.916
818.693, 11.662
819.973, 237.389
821.253, 219.094
822.533, 22.780
823.813, 244.447
825.092, 84.095
826.371, 206.724
827.650, 91.336
828.929, 84.932
830.208, 299.509
831.486, 284.070
832.764, 73.616
834.042, 137.146
835.320, 74.582
836.598, 126.097
837.875, 229.510
839.152, 241.983
840.429, 61.870
841.706, 353.365
842.983, 79.137
844.259, 107.249
845.536, 140.839
846.812, 69.756
848.088, 153.886
849.363, 63.562
850.639, 60.968
851.914, 124.274
853.189, 18.547
854.464, 38.854
855.739, 171.000
857.013, 191.529
858.288, 119.617
859.562, 43.797
860.836, 55.266
862.110, 202.547
863.383, 83.021
864.656, 149.338
865.930, 72.836
867.203, 78.416
868.475, 63.781
869.748, 116.230
871.020, 99.234
872.292, 65.635
873.564, 65.305
874.836, 12.211
876.108, 212.883
877.379, 191.477
878.650, 13.738
879.922, 102.879
881.192, 236.197
882.463, 46.957
883.733, 113.760
885.004, 68.102
886.274, 56.416
887.544, 91.760
888.813, 67.068
890.083, 34.686
891.352, 76.363
892.621, 170.498
893.890, 174.727
895.159, 159.900
896.427, 228.480
897.695, 33.814
898.964, 378.836
900.232, 242.275
901.499, 120.035
902.767, 311.074
904.034, 202.422
905.301, 174.010
906.568, 290.100
907.835, 168.906
909.102, 370.717
910.368, 120.701
911.634, 287.648
912.900, 399.943
914.166, 277.979
915.432, 515.656
916.697, 393.748
917.962, 153.869
919.227, 491.195
920.492, 456.371
921.757, 394.576
923.021, 456.811
924.285, 516.072
925.550, 464.402
926.813, 536.791
928.077, 400.939
929.341, 411.426
930.604, 477.939
931.867, 642.500
933.130, 328.133
934.393, 411.797
935.655, 599.504
936.918, 306.242
938.180, 656.014
939.442, 468.816
940.703, 471.654
941.965, 601.535
943.226, 545.449
944.488, 487.395
945.749, 630.375
947.009, 806.389
948.270, 606.439
949.530, 642.521
950.791, 670.641
952.051, 864.795
953.311, 765.984
954.570, 603.240
955.830, 923.215
957.089, 1035.545
958.348, 941.066
959.607, 785.473
960.866, 1019.914
962.124, 899.396
963.383, 843.963
964.641, 1268.605
965.899, 1070.537
967.156, 1164.324
968.414, 1292.154
969.671, 1187.021
970.928, 1376.926
972.185, 1371.869
973.442, 1495.850
974.699, 1462.873
975.955, 1830.932
977.211, 1815.047
978.468, 1893.199
979.723, 2208.395
980.979, 2297.631
982.234, 2363.912
983.490, 3148.232
984.745, 2710.598
986.000, 3333.000
987.254, 3615.445
988.509, 3521.953
989.763, 3987.520
991.017, 4321.145
992.271, 4399.367
993.525, 4612.088
994.779, 4830.869
996.032, 5243.693
997.285, 5566.596
998.538, 6130.938
999.791, 6157.000
1001.044, 7369.121
1002.296, 7326.293
1003.548, 8443.520
1004.800, 9188.582
1006.052, 10143.969
1007.304, 11641.414
1008.555, 12716.914
1009.807, 14369.527
1011.058, 16185.506
1012.309, 18334.234
1013.559, 20437.033
1014.810, 22452.346
1016.060, 24535.312
1017.310, 27320.385
1018.560, 29406.523
1019.810, 30734.730
1021.060, 32515.031
1022.309, 33423.574
1023.558, 32763.094
1024.807, 32696.699
1026.056, 30529.252
1027.305, 28544.014
1028.553, 25759.166
1029.801, 23806.064
1031.049, 20780.123
1032.297, 18588.166
1033.545, 16845.949
1034.793, 15461.176
1036.040, 13794.453
1037.287, 12825.793
1038.534, 12120.180
1039.781, 11327.641
1041.027, 10831.152
1042.274, 9997.316
1043.520, 9763.980
1044.766, 9688.643
1046.012, 8979.379
1047.257, 8865.826
1048.503, 8411.914
1049.748, 8483.896
1050.993, 7949.820
1052.238, 8052.072
1053.483, 7362.076
1054.727, 6927.113
1055.971, 6490.184
1057.216, 6479.312
1058.459, 5931.471
1059.703, 5794.729
1060.947, 5484.959
1062.190, 5435.648
1063.433, 5327.822
1064.676, 5257.150
1065.919, 5167.520
1067.162, 5007.922
1068.404, 5321.371
1069.646, 4787.844
1070.888, 4573.342
1072.130, 4579.867
1073.372, 3990.428
1074.613, 3814.439
1075.855, 3837.629
1077.096, 3202.764
1078.337, 2941.436
1079.578, 3051.133
1080.818, 2565.227
1082.059, 2651.357
1083.299, 2393.443
1084.539, 2285.793
1085.779, 2233.781
1087.018, 2203.014
1088.258, 2121.889
1089.497, 2269.785
1090.736, 2112.477
1091.975, 2288.420
1093.213, 2197.385
1094.452, 2288.373
1095.690, 2503.381
1096.928, 2020.828
1098.166, 2209.408
1099.404, 2109.768
1100.642, 2173.004
1101.879, 1893.371
1103.116, 2057.127
1104.353, 1815.771
1105.590, 1945.334
1106.827, 1657.609
1108.063, 1811.068
1109.299, 1635.688
1110.536, 1813.805
1111.771, 1685.521
1113.007, 1811.957
1114.243, 1737.727
1115.478, 1929.275
1116.713, 1805.199
1117.948, 1874.875
1119.183, 1980.234
1120.418, 1855.295
1121.652, 2161.129
1122.886, 2748.064
1124.120, 2926.770
1125.354, 2697.061
1126.588, 2216.660
1127.821, 2207.684
1129.055, 2083.836
1130.288, 2211.594
1131.521, 2241.588
1132.753, 2272.168
1133.986, 2181.332
1135.218, 2606.020
1136.450, 3081.799
1137.682, 2629.928
1138.914, 3345.664
1140.146, 3095.594
1141.377, 3278.643
1142.609, 3447.016
1143.840, 3600.242
1145.071, 3737.152
1146.301, 3810.070
1147.532, 3884.514
1148.762, 3862.625
1149.992, 3617.092
1151.222, 3296.061
1152.452, 3210.639
1153.682, 2930.678
1154.911, 2549.238
1156.140, 2501.965
1157.369, 2041.641
1158.598, 1924.881
1159.827, 1668.518
1161.055, 1702.180
1162.284, 1302.498
1163.512, 1199.328
1164.740, 1259.057
1165.967, 991.506
1167.195, 930.504
1168.422, 752.734
1169.650, 614.154
1170.877, 536.852
1172.103, 298.697
1173.330, 351.707
1174.557, 307.205
1175.783, 433.219
1177.009, 290.936
1178.235, 129.129
1179.461, 143.240
1180.686, 55.918
1181.912, 60.750
1183.137, 131.701
1184.362, 197.117
1185.587, 11.791
1186.811, 14.307
1188.036, 155.807
1189.260, 21.137
1190.484, 1.139
1191.708, 12.768
1192.932, 193.281
1194.155, 83.262
1195.378, 38.791
1196.602, 120.518
1197.825, 148.711
1199.047, 70.127
1200.270, 77.131
1201.492, 117.779
1202.715, 142.506
1203.937, 159.285
1205.159, 116.783
1206.380, 38.633
1207.602, 147.191
1208.823, 43.330
1210.044, 82.602
1211.265, 78.748
1212.486, 99.049
1213.707, 165.342
1214.927, 79.598
1216.147, 87.771
1217.367, 98.965
1218.587, 98.211
1219.807, 178.336
1221.027, 124.568
1222.246, 93.580
1223.465, 122.557
1224.684, 125.266
1225.903, 143.010
1227.121, 36.586
1228.340, 130.912
1229.558, 59.070
1230.776, 19.227
1231.994, 101.320
1233.212, 52.842
1234.429, 644.336
1235.646, 812.807
1236.864, 15.785
1238.081, 746.580
1239.297, 204.916
1240.514, 226.170
1241.730, 228.301
1242.947, 72.363
1244.163, 49.516
1245.378, 109.512
1246.594, 147.855
1247.810, 124.215
1249.025, 80.184
1250.240, 73.607
1251.455, 102.355
1252.670, 35.070
1253.885, 144.666
1255.099, 113.223
1256.313, 48.734
1257.527, 132.836
1258.741, 95.168
1259.955, 99.062
1261.168, 62.219
1262.382, 35.762
1263.595, 147.680
1264.808, 248.613
1266.021, 81.980
1267.233, 126.725
1268.446, 108.992
1269.658, 168.555
1270.870, 0.986
1272.082, 202.385
1273.294, 49.686
1274.505, 95.926
1275.716, 62.104
1276.928, 124.193
1278.139, 73.229
1279.349, 106.180
1280.560, 208.123
1281.770, 16.082
1282.981, 11.633
1284.191, 13.729
1285.401, 160.838
1286.610, 137.350
1287.820, 101.805
1289.029, 118.201
1290.239, 44.475
1291.448, 175.762
1292.656, 103.936
1293.865, 20.041
1295.073, 105.074
1296.282, 171.049
1297.490, 99.043
1298.698, 5.760
1299.906, 62.484
1301.113, 231.143
1302.320, 60.738
1303.528, 133.264
1304.735, 103.729
1305.942, 103.127
1307.148, 75.457
1308.355, 139.721
1309.561, 75.916
1310.767, 119.043
1311.973, 106.104
1313.179, 70.098
1314.384, 90.979
1315.590, 229.840
1316.795, 49.412
1318.000, 162.232
1319.205, 44.816
1320.410, 160.328
1321.614, 216.781
1322.819, 35.176
1324.023, 277.434
1325.227, 167.699
1326.431, 192.273
1327.634, 86.428
1328.838, 18.520
1330.041, 177.539
1331.244, 211.502
1332.447, 210.410
1333.650, 132.262
1334.852, 42.471
1336.055, 171.160
1337.257, 183.836
1338.459, 103.457
1339.661, 12.363
1340.862, 208.312
1342.064, 193.652
1343.265, 204.055
1344.466, 169.117
1345.667, 304.426
1346.868, 278.689
1348.068, 309.912
1349.269, 275.096
1350.469, 231.082
1351.669, 294.121
1352.869, 349.191
1354.069, 231.801
1355.268, 354.926
1356.468, 71.900
1357.667, 299.842
1358.866, 383.799
1360.065, 129.596
1361.263, 369.840
1362.462, 281.584
1363.660, 127.285
1364.858, 391.787
1366.056, 374.682
1367.254, 248.129
1368.451, 357.574
1369.649, 392.873
1370.846, 133.105
1372.043, 373.633
1373.240, 192.648
1374.436, 250.650
1375.633, 307.494
1376.829, 372.812
1378.025, 411.482
1379.221, 339.783
1380.417, 439.287
1381.613, 373.002
1382.808, 293.578
1384.003, 358.697
1385.199, 306.186
1386.393, 283.629
1387.588, 221.783
1388.783, 302.885
1389.977, 161.242
1391.171, 329.594
1392.365, 205.914
1393.559, 251.658
1394.753, 349.316
1395.946, 238.168
1397.140, 421.473
1398.333, 348.664
1399.526, 440.953
1400.719, 443.328
1401.911, 439.922
1403.104, 414.930
1404.296, 297.426
1405.488, 249.736
1406.680, 343.982
1407.872, 185.885
1409.063, 83.252
1410.255, 379.010
1411.446, 75.871
1412.637, 446.744
1413.828, 233.434
1415.018, 323.729
1416.209, 307.512
1417.399, 326.221
1418.589, 209.420
1419.779, 431.324
1420.969, 299.402
1422.159, 332.709
1423.348, 127.871
1424.537, 271.557
1425.726, 459.885
1426.915, 245.941
1428.104, 294.447
1429.293, 268.498
1430.481, 235.834
1431.669, 191.332
1432.857, 264.889
1434.045, 243.979
1435.233, 253.100
1436.420, 457.758
1437.608, 496.445
1438.795, 259.924
1439.982, 498.254
1441.169, 316.980
1442.355, 363.977
1443.542, 471.961
1444.728, 332.744
1445.914, 383.357
1447.100, 372.162
1448.286, 548.824
1449.472, 434.607
1450.657, 407.709
1451.842, 533.070
1453.027, 375.375
1454.212, 283.656
1455.397, 652.990
1456.581, 252.422
1457.766, 481.986
1458.950, 532.666
1460.134, 319.373
1461.318, 374.229
1462.501, 165.320
1463.685, 321.416
1464.868, 393.650
1466.051, 191.828
1467.234, 587.428
1468.417, 350.020
1469.600, 445.557
1470.782, 256.117
1471.965, 509.719
1473.147, 203.398
1474.329, 531.094
1475.510, 501.846
1476.692, 247.646
1477.873, 245.516
1479.055, 327.482
1480.236, 101.592
1481.416, 485.842
1482.597, 336.248
1483.778, 387.861
1484.958, 245.795
1486.138, 322.906
1487.318, 207.199
1488.498, 519.672
1489.678, 200.352
1490.857, 84.264
1492.037, 19.553
1493.216, 321.949
1494.395, 493.816
1495.574, 261.092
1496.752, 311.809
1497.931, 108.006
1499.109, 328.758
1500.287, 5.605
1501.465, 145.934
1502.643, 2.137
1503.820, 115.432
1504.998, 164.043
1506.175, 137.248
1507.352, 0.000
##END=



